wavelength,polarizability
500,-167.04
500.1,-167.173
500.2,-167.305
500.3,-167.437
500.4,-167.57
500.5,-167.702
500.6,-167.834
500.7,-167.967
500.8,-168.099
500.9,-168.231
501,-168.364
501.1,-168.496
501.2,-168.628
501.3,-168.761
501.4,-168.893
501.5,-169.025
501.6,-169.157
501.7,-169.29
501.8,-169.422
501.9,-169.554
502,-169.687
502.1,-169.819
502.2,-169.951
502.3,-170.083
502.4,-170.216
502.5,-170.348
502.6,-170.48
502.7,-170.613
502.8,-170.745
502.9,-170.877
503,-171.01
503.1,-171.142
503.2,-171.274
503.3,-171.407
503.4,-171.539
503.5,-171.672
503.6,-171.804
503.7,-171.936
503.8,-172.069
503.9,-172.201
504,-172.334
504.1,-172.466
504.2,-172.599
504.3,-172.731
504.4,-172.863
504.5,-172.996
504.6,-173.128
504.7,-173.261
504.8,-173.394
504.9,-173.526
505,-173.659
505.1,-173.791
505.2,-173.924
505.3,-174.056
505.4,-174.189
505.5,-174.322
505.6,-174.454
505.7,-174.587
505.8,-174.72
505.9,-174.853
506,-174.985
506.1,-175.118
506.2,-175.251
506.3,-175.384
506.4,-175.517
506.5,-175.649
506.6,-175.782
506.7,-175.915
506.8,-176.048
506.9,-176.181
507,-176.314
507.1,-176.447
507.2,-176.58
507.3,-176.713
507.4,-176.846
507.5,-176.979
507.6,-177.112
507.7,-177.245
507.8,-177.378
507.9,-177.512
508,-177.645
508.1,-177.778
508.2,-177.911
508.3,-178.045
508.4,-178.178
508.5,-178.311
508.6,-178.445
508.7,-178.578
508.8,-178.712
508.9,-178.845
509,-178.979
509.1,-179.112
509.2,-179.246
509.3,-179.379
509.4,-179.513
509.5,-179.646
509.6,-179.78
509.7,-179.914
509.8,-180.048
509.9,-180.181
510,-180.315
510.1,-180.449
510.2,-180.583
510.3,-180.717
510.4,-180.851
510.5,-180.985
510.6,-181.119
510.7,-181.253
510.8,-181.387
510.9,-181.521
511,-181.655
511.1,-181.789
511.2,-181.924
511.3,-182.058
511.4,-182.192
511.5,-182.326
511.6,-182.461
511.7,-182.595
511.8,-182.73
511.9,-182.864
512,-182.999
512.1,-183.133
512.2,-183.268
512.3,-183.403
512.4,-183.537
512.5,-183.672
512.6,-183.807
512.7,-183.942
512.8,-184.076
512.9,-184.211
513,-184.346
513.1,-184.481
513.2,-184.616
513.3,-184.751
513.4,-184.886
513.5,-185.021
513.6,-185.157
513.7,-185.292
513.8,-185.427
513.9,-185.562
514,-185.698
514.1,-185.833
514.2,-185.969
514.3,-186.104
514.4,-186.24
514.5,-186.375
514.6,-186.511
514.7,-186.647
514.8,-186.782
514.9,-186.918
515,-187.054
515.1,-187.19
515.2,-187.326
515.3,-187.461
515.4,-187.597
515.5,-187.734
515.6,-187.87
515.7,-188.006
515.8,-188.142
515.9,-188.278
516,-188.414
516.1,-188.551
516.2,-188.687
516.3,-188.824
516.4,-188.96
516.5,-189.097
516.6,-189.233
516.7,-189.37
516.8,-189.506
516.9,-189.643
517,-189.78
517.1,-189.917
517.2,-190.054
517.3,-190.191
517.4,-190.328
517.5,-190.465
517.6,-190.602
517.7,-190.739
517.8,-190.876
517.9,-191.013
518,-191.15
518.1,-191.288
518.2,-191.425
518.3,-191.563
518.4,-191.7
518.5,-191.838
518.6,-191.975
518.7,-192.113
518.8,-192.251
518.9,-192.388
519,-192.526
519.1,-192.664
519.2,-192.802
519.3,-192.94
519.4,-193.078
519.5,-193.216
519.6,-193.354
519.7,-193.493
519.8,-193.631
519.9,-193.769
520,-193.908
520.1,-194.046
520.2,-194.184
520.3,-194.323
520.4,-194.462
520.5,-194.6
520.6,-194.739
520.7,-194.878
520.8,-195.017
520.9,-195.156
521,-195.295
521.1,-195.434
521.2,-195.573
521.3,-195.712
521.4,-195.851
521.5,-195.99
521.6,-196.129
521.7,-196.269
521.8,-196.408
521.9,-196.548
522,-196.687
522.1,-196.827
522.2,-196.967
522.3,-197.106
522.4,-197.246
522.5,-197.386
522.6,-197.526
522.7,-197.666
522.8,-197.806
522.9,-197.946
523,-198.086
523.1,-198.226
523.2,-198.367
523.3,-198.507
523.4,-198.647
523.5,-198.788
523.6,-198.928
523.7,-199.069
523.8,-199.21
523.9,-199.35
524,-199.491
524.1,-199.632
524.2,-199.773
524.3,-199.914
524.4,-200.055
524.5,-200.196
524.6,-200.337
524.7,-200.478
524.8,-200.62
524.9,-200.761
525,-200.903
525.1,-201.044
525.2,-201.186
525.3,-201.327
525.4,-201.469
525.5,-201.611
525.6,-201.753
525.7,-201.894
525.8,-202.036
525.9,-202.178
526,-202.321
526.1,-202.463
526.2,-202.605
526.3,-202.747
526.4,-202.89
526.5,-203.032
526.6,-203.175
526.7,-203.317
526.8,-203.46
526.9,-203.602
527,-203.745
527.1,-203.888
527.2,-204.031
527.3,-204.174
527.4,-204.317
527.5,-204.46
527.6,-204.603
527.7,-204.747
527.8,-204.89
527.9,-205.033
528,-205.177
528.1,-205.32
528.2,-205.464
528.3,-205.607
528.4,-205.751
528.5,-205.895
528.6,-206.039
528.7,-206.183
528.8,-206.327
528.9,-206.471
529,-206.615
529.1,-206.759
529.2,-206.904
529.3,-207.048
529.4,-207.193
529.5,-207.337
529.6,-207.482
529.7,-207.626
529.8,-207.771
529.9,-207.916
530,-208.061
530.1,-208.206
530.2,-208.351
530.3,-208.496
530.4,-208.641
530.5,-208.786
530.6,-208.932
530.7,-209.077
530.8,-209.223
530.9,-209.368
531,-209.514
531.1,-209.66
531.2,-209.805
531.3,-209.951
531.4,-210.097
531.5,-210.243
531.6,-210.389
531.7,-210.535
531.8,-210.682
531.9,-210.828
532,-210.974
532.1,-211.121
532.2,-211.267
532.3,-211.414
532.4,-211.561
532.5,-211.707
532.6,-211.854
532.7,-212.001
532.8,-212.148
532.9,-212.295
533,-212.442
533.1,-212.589
533.2,-212.737
533.3,-212.884
533.4,-213.032
533.5,-213.179
533.6,-213.327
533.7,-213.474
533.8,-213.622
533.9,-213.77
534,-213.918
534.1,-214.066
534.2,-214.214
534.3,-214.362
534.4,-214.51
534.5,-214.659
534.6,-214.807
534.7,-214.956
534.8,-215.104
534.9,-215.253
535,-215.402
535.1,-215.55
535.2,-215.699
535.3,-215.848
535.4,-215.997
535.5,-216.146
535.6,-216.296
535.7,-216.445
535.8,-216.594
535.9,-216.744
536,-216.893
536.1,-217.043
536.2,-217.192
536.3,-217.342
536.4,-217.492
536.5,-217.642
536.6,-217.792
536.7,-217.942
536.8,-218.092
536.9,-218.243
537,-218.393
537.1,-218.543
537.2,-218.694
537.3,-218.844
537.4,-218.995
537.5,-219.146
537.6,-219.297
537.7,-219.448
537.8,-219.599
537.9,-219.75
538,-219.901
538.1,-220.052
538.2,-220.203
538.3,-220.355
538.4,-220.506
538.5,-220.658
538.6,-220.81
538.7,-220.961
538.8,-221.113
538.9,-221.265
539,-221.417
539.1,-221.569
539.2,-221.722
539.3,-221.874
539.4,-222.026
539.5,-222.179
539.6,-222.331
539.7,-222.484
539.8,-222.637
539.9,-222.789
540,-222.942
540.1,-223.095
540.2,-223.248
540.3,-223.401
540.4,-223.555
540.5,-223.708
540.6,-223.861
540.7,-224.015
540.8,-224.168
540.9,-224.322
541,-224.476
541.1,-224.63
541.2,-224.784
541.3,-224.938
541.4,-225.092
541.5,-225.246
541.6,-225.4
541.7,-225.555
541.8,-225.709
541.9,-225.864
542,-226.018
542.1,-226.173
542.2,-226.328
542.3,-226.483
542.4,-226.638
542.5,-226.793
542.6,-226.948
542.7,-227.103
542.8,-227.258
542.9,-227.414
543,-227.569
543.1,-227.725
543.2,-227.881
543.3,-228.037
543.4,-228.192
543.5,-228.348
543.6,-228.505
543.7,-228.661
543.8,-228.817
543.9,-228.973
544,-229.13
544.1,-229.286
544.2,-229.443
544.3,-229.6
544.4,-229.756
544.5,-229.913
544.6,-230.07
544.7,-230.227
544.8,-230.385
544.9,-230.542
545,-230.699
545.1,-230.857
545.2,-231.014
545.3,-231.172
545.4,-231.33
545.5,-231.488
545.6,-231.645
545.7,-231.803
545.8,-231.962
545.9,-232.12
546,-232.278
546.1,-232.437
546.2,-232.595
546.3,-232.754
546.4,-232.912
546.5,-233.071
546.6,-233.23
546.7,-233.389
546.8,-233.548
546.9,-233.707
547,-233.866
547.1,-234.026
547.2,-234.185
547.3,-234.345
547.4,-234.504
547.5,-234.664
547.6,-234.824
547.7,-234.984
547.8,-235.144
547.9,-235.304
548,-235.464
548.1,-235.624
548.2,-235.785
548.3,-235.945
548.4,-236.106
548.5,-236.267
548.6,-236.427
548.7,-236.588
548.8,-236.749
548.9,-236.91
549,-237.072
549.1,-237.233
549.2,-237.394
549.3,-237.556
549.4,-237.717
549.5,-237.879
549.6,-238.041
549.7,-238.203
549.8,-238.365
549.9,-238.527
550,-238.689
550.1,-238.851
550.2,-239.014
550.3,-239.176
550.4,-239.339
550.5,-239.501
550.6,-239.664
550.7,-239.827
550.8,-239.99
550.9,-240.153
551,-240.316
551.1,-240.479
551.2,-240.643
551.3,-240.806
551.4,-240.97
551.5,-241.133
551.6,-241.297
551.7,-241.461
551.8,-241.625
551.9,-241.789
552,-241.953
552.1,-242.118
552.2,-242.282
552.3,-242.447
552.4,-242.611
552.5,-242.776
552.6,-242.941
552.7,-243.106
552.8,-243.271
552.9,-243.436
553,-243.601
553.1,-243.766
553.2,-243.932
553.3,-244.097
553.4,-244.263
553.5,-244.428
553.6,-244.594
553.7,-244.76
553.8,-244.926
553.9,-245.092
554,-245.259
554.1,-245.425
554.2,-245.591
554.3,-245.758
554.4,-245.925
554.5,-246.091
554.6,-246.258
554.7,-246.425
554.8,-246.592
554.9,-246.76
555,-246.927
555.1,-247.094
555.2,-247.262
555.3,-247.429
555.4,-247.597
555.5,-247.765
555.6,-247.933
555.7,-248.101
555.8,-248.269
555.9,-248.437
556,-248.606
556.1,-248.774
556.2,-248.943
556.3,-249.111
556.4,-249.28
556.5,-249.449
556.6,-249.618
556.7,-249.787
556.8,-249.956
556.9,-250.126
557,-250.295
557.1,-250.465
557.2,-250.634
557.3,-250.804
557.4,-250.974
557.5,-251.144
557.6,-251.314
557.7,-251.484
557.8,-251.655
557.9,-251.825
558,-251.995
558.1,-252.166
558.2,-252.337
558.3,-252.508
558.4,-252.679
558.5,-252.85
558.6,-253.021
558.7,-253.192
558.8,-253.364
558.9,-253.535
559,-253.707
559.1,-253.878
559.2,-254.05
559.3,-254.222
559.4,-254.394
559.5,-254.567
559.6,-254.739
559.7,-254.911
559.8,-255.084
559.9,-255.256
560,-255.429
560.1,-255.602
560.2,-255.775
560.3,-255.948
560.4,-256.121
560.5,-256.295
560.6,-256.468
560.7,-256.641
560.8,-256.815
560.9,-256.989
561,-257.163
561.1,-257.337
561.2,-257.511
561.3,-257.685
561.4,-257.859
561.5,-258.034
561.6,-258.208
561.7,-258.383
561.8,-258.558
561.9,-258.733
562,-258.908
562.1,-259.083
562.2,-259.258
562.3,-259.433
562.4,-259.609
562.5,-259.785
562.6,-259.96
562.7,-260.136
562.8,-260.312
562.9,-260.488
563,-260.664
563.1,-260.84
563.2,-261.017
563.3,-261.193
563.4,-261.37
563.5,-261.547
563.6,-261.724
563.7,-261.901
563.8,-262.078
563.9,-262.255
564,-262.432
564.1,-262.61
564.2,-262.787
564.3,-262.965
564.4,-263.143
564.5,-263.321
564.6,-263.499
564.7,-263.677
564.8,-263.855
564.9,-264.034
565,-264.212
565.1,-264.391
565.2,-264.57
565.3,-264.748
565.4,-264.927
565.5,-265.107
565.6,-265.286
565.7,-265.465
565.8,-265.645
565.9,-265.824
566,-266.004
566.1,-266.184
566.2,-266.364
566.3,-266.544
566.4,-266.724
566.5,-266.904
566.6,-267.085
566.7,-267.265
566.8,-267.446
566.9,-267.627
567,-267.808
567.1,-267.989
567.2,-268.17
567.3,-268.351
567.4,-268.533
567.5,-268.714
567.6,-268.896
567.7,-269.078
567.8,-269.26
567.9,-269.442
568,-269.624
568.1,-269.806
568.2,-269.988
568.3,-270.171
568.4,-270.354
568.5,-270.536
568.6,-270.719
568.7,-270.902
568.8,-271.085
568.9,-271.269
569,-271.452
569.1,-271.636
569.2,-271.819
569.3,-272.003
569.4,-272.187
569.5,-272.371
569.6,-272.555
569.7,-272.739
569.8,-272.924
569.9,-273.108
570,-273.293
570.1,-273.478
570.2,-273.662
570.3,-273.847
570.4,-274.033
570.5,-274.218
570.6,-274.403
570.7,-274.589
570.8,-274.774
570.9,-274.96
571,-275.146
571.1,-275.332
571.2,-275.518
571.3,-275.705
571.4,-275.891
571.5,-276.078
571.6,-276.264
571.7,-276.451
571.8,-276.638
571.9,-276.825
572,-277.012
572.1,-277.2
572.2,-277.387
572.3,-277.575
572.4,-277.762
572.5,-277.95
572.6,-278.138
572.7,-278.326
572.8,-278.514
572.9,-278.703
573,-278.891
573.1,-279.08
573.2,-279.269
573.3,-279.458
573.4,-279.647
573.5,-279.836
573.6,-280.025
573.7,-280.214
573.8,-280.404
573.9,-280.594
574,-280.783
574.1,-280.973
574.2,-281.163
574.3,-281.354
574.4,-281.544
574.5,-281.734
574.6,-281.925
574.7,-282.116
574.8,-282.307
574.9,-282.498
575,-282.689
575.1,-282.88
575.2,-283.071
575.3,-283.263
575.4,-283.455
575.5,-283.646
575.6,-283.838
575.7,-284.03
575.8,-284.222
575.9,-284.415
576,-284.607
576.1,-284.8
576.2,-284.993
576.3,-285.186
576.4,-285.379
576.5,-285.572
576.6,-285.765
576.7,-285.958
576.8,-286.152
576.9,-286.346
577,-286.539
577.1,-286.733
577.2,-286.927
577.3,-287.122
577.4,-287.316
577.5,-287.511
577.6,-287.705
577.7,-287.9
577.8,-288.095
577.9,-288.29
578,-288.485
578.1,-288.681
578.2,-288.876
578.3,-289.072
578.4,-289.267
578.5,-289.463
578.6,-289.659
578.7,-289.855
578.8,-290.052
578.9,-290.248
579,-290.445
579.1,-290.642
579.2,-290.838
579.3,-291.035
579.4,-291.233
579.5,-291.43
579.6,-291.627
579.7,-291.825
579.8,-292.023
579.9,-292.22
580,-292.418
580.1,-292.616
580.2,-292.815
580.3,-293.013
580.4,-293.212
580.5,-293.41
580.6,-293.609
580.7,-293.808
580.8,-294.007
580.9,-294.207
581,-294.406
581.1,-294.606
581.2,-294.805
581.3,-295.005
581.4,-295.205
581.5,-295.405
581.6,-295.606
581.7,-295.806
581.8,-296.006
581.9,-296.207
582,-296.408
582.1,-296.609
582.2,-296.81
582.3,-297.011
582.4,-297.213
582.5,-297.414
582.6,-297.616
582.7,-297.818
582.8,-298.02
582.9,-298.222
583,-298.424
583.1,-298.627
583.2,-298.83
583.3,-299.032
583.4,-299.235
583.5,-299.438
583.6,-299.641
583.7,-299.845
583.8,-300.048
583.9,-300.252
584,-300.456
584.1,-300.659
584.2,-300.864
584.3,-301.068
584.4,-301.272
584.5,-301.477
584.6,-301.681
584.7,-301.886
584.8,-302.091
584.9,-302.296
585,-302.501
585.1,-302.707
585.2,-302.912
585.3,-303.118
585.4,-303.324
585.5,-303.53
585.6,-303.736
585.7,-303.942
585.8,-304.149
585.9,-304.355
586,-304.562
586.1,-304.769
586.2,-304.976
586.3,-305.183
586.4,-305.391
586.5,-305.598
586.6,-305.806
586.7,-306.014
586.8,-306.222
586.9,-306.43
587,-306.638
587.1,-306.847
587.2,-307.055
587.3,-307.264
587.4,-307.473
587.5,-307.682
587.6,-307.891
587.7,-308.1
587.8,-308.31
587.9,-308.52
588,-308.729
588.1,-308.939
588.2,-309.149
588.3,-309.36
588.4,-309.57
588.5,-309.781
588.6,-309.992
588.7,-310.202
588.8,-310.413
588.9,-310.625
589,-310.836
589.1,-311.048
589.2,-311.259
589.3,-311.471
589.4,-311.683
589.5,-311.895
589.6,-312.108
589.7,-312.32
589.8,-312.533
589.9,-312.746
590,-312.958
590.1,-313.172
590.2,-313.385
590.3,-313.598
590.4,-313.812
590.5,-314.026
590.6,-314.24
590.7,-314.454
590.8,-314.668
590.9,-314.882
591,-315.097
591.1,-315.311
591.2,-315.526
591.3,-315.741
591.4,-315.956
591.5,-316.172
591.6,-316.387
591.7,-316.603
591.8,-316.819
591.9,-317.035
592,-317.251
592.1,-317.467
592.2,-317.684
592.3,-317.9
592.4,-318.117
592.5,-318.334
592.6,-318.551
592.7,-318.769
592.8,-318.986
592.9,-319.204
593,-319.421
593.1,-319.639
593.2,-319.857
593.3,-320.076
593.4,-320.294
593.5,-320.513
593.6,-320.732
593.7,-320.95
593.8,-321.17
593.9,-321.389
594,-321.608
594.1,-321.828
594.2,-322.048
594.3,-322.268
594.4,-322.488
594.5,-322.708
594.6,-322.928
594.7,-323.149
594.8,-323.37
594.9,-323.591
595,-323.812
595.1,-324.033
595.2,-324.254
595.3,-324.476
595.4,-324.698
595.5,-324.92
595.6,-325.142
595.7,-325.364
595.8,-325.587
595.9,-325.809
596,-326.032
596.1,-326.255
596.2,-326.478
596.3,-326.701
596.4,-326.925
596.5,-327.148
596.6,-327.372
596.7,-327.596
596.8,-327.82
596.9,-328.045
597,-328.269
597.1,-328.494
597.2,-328.719
597.3,-328.944
597.4,-329.169
597.5,-329.394
597.6,-329.62
597.7,-329.845
597.8,-330.071
597.9,-330.297
598,-330.524
598.1,-330.75
598.2,-330.977
598.3,-331.203
598.4,-331.43
598.5,-331.657
598.6,-331.885
598.7,-332.112
598.8,-332.34
598.9,-332.567
599,-332.795
599.1,-333.024
599.2,-333.252
599.3,-333.48
599.4,-333.709
599.5,-333.938
599.6,-334.167
599.7,-334.396
599.8,-334.626
599.9,-334.855
600,-335.085
600.1,-335.315
600.2,-335.545
600.3,-335.775
600.4,-336.006
600.5,-336.236
600.6,-336.467
600.7,-336.698
600.8,-336.929
600.9,-337.16
601,-337.392
601.1,-337.624
601.2,-337.856
601.3,-338.088
601.4,-338.32
601.5,-338.552
601.6,-338.785
601.7,-339.018
601.8,-339.251
601.9,-339.484
602,-339.717
602.1,-339.951
602.2,-340.184
602.3,-340.418
602.4,-340.652
602.5,-340.887
602.6,-341.121
602.7,-341.356
602.8,-341.59
602.9,-341.825
603,-342.061
603.1,-342.296
603.2,-342.531
603.3,-342.767
603.4,-343.003
603.5,-343.239
603.6,-343.475
603.7,-343.712
603.8,-343.949
603.9,-344.185
604,-344.422
604.1,-344.66
604.2,-344.897
604.3,-345.135
604.4,-345.372
604.5,-345.61
604.6,-345.848
604.7,-346.087
604.8,-346.325
604.9,-346.564
605,-346.803
605.1,-347.042
605.2,-347.281
605.3,-347.521
605.4,-347.76
605.5,-348
605.6,-348.24
605.7,-348.481
605.8,-348.721
605.9,-348.962
606,-349.202
606.1,-349.443
606.2,-349.684
606.3,-349.926
606.4,-350.167
606.5,-350.409
606.6,-350.651
606.7,-350.893
606.8,-351.136
606.9,-351.378
607,-351.621
607.1,-351.864
607.2,-352.107
607.3,-352.35
607.4,-352.594
607.5,-352.837
607.6,-353.081
607.7,-353.325
607.8,-353.57
607.9,-353.814
608,-354.059
608.1,-354.304
608.2,-354.549
608.3,-354.794
608.4,-355.039
608.5,-355.285
608.6,-355.531
608.7,-355.777
608.8,-356.023
608.9,-356.269
609,-356.516
609.1,-356.763
609.2,-357.01
609.3,-357.257
609.4,-357.505
609.5,-357.752
609.6,-358
609.7,-358.248
609.8,-358.496
609.9,-358.745
610,-358.993
610.1,-359.242
610.2,-359.491
610.3,-359.74
610.4,-359.99
610.5,-360.239
610.6,-360.489
610.7,-360.739
610.8,-360.99
610.9,-361.24
611,-361.491
611.1,-361.741
611.2,-361.992
611.3,-362.244
611.4,-362.495
611.5,-362.747
611.6,-362.999
611.7,-363.251
611.8,-363.503
611.9,-363.756
612,-364.008
612.1,-364.261
612.2,-364.514
612.3,-364.767
612.4,-365.021
612.5,-365.275
612.6,-365.529
612.7,-365.783
612.8,-366.037
612.9,-366.292
613,-366.546
613.1,-366.801
613.2,-367.056
613.3,-367.312
613.4,-367.567
613.5,-367.823
613.6,-368.079
613.7,-368.335
613.8,-368.592
613.9,-368.848
614,-369.105
614.1,-369.362
614.2,-369.62
614.3,-369.877
614.4,-370.135
614.5,-370.393
614.6,-370.651
614.7,-370.909
614.8,-371.168
614.9,-371.426
615,-371.685
615.1,-371.944
615.2,-372.204
615.3,-372.463
615.4,-372.723
615.5,-372.983
615.6,-373.243
615.7,-373.504
615.8,-373.765
615.9,-374.025
616,-374.287
616.1,-374.548
616.2,-374.809
616.3,-375.071
616.4,-375.333
616.5,-375.595
616.6,-375.858
616.7,-376.12
616.8,-376.383
616.9,-376.646
617,-376.909
617.1,-377.173
617.2,-377.437
617.3,-377.701
617.4,-377.965
617.5,-378.229
617.6,-378.494
617.7,-378.758
617.8,-379.024
617.9,-379.289
618,-379.554
618.1,-379.82
618.2,-380.086
618.3,-380.352
618.4,-380.618
618.5,-380.885
618.6,-381.152
618.7,-381.419
618.8,-381.686
618.9,-381.953
619,-382.221
619.1,-382.489
619.2,-382.757
619.3,-383.026
619.4,-383.294
619.5,-383.563
619.6,-383.832
619.7,-384.101
619.8,-384.371
619.9,-384.64
620,-384.91
620.1,-385.181
620.2,-385.451
620.3,-385.722
620.4,-385.992
620.5,-386.264
620.6,-386.535
620.7,-386.806
620.8,-387.078
620.9,-387.35
621,-387.622
621.1,-387.895
621.2,-388.168
621.3,-388.44
621.4,-388.714
621.5,-388.987
621.6,-389.261
621.7,-389.534
621.8,-389.808
621.9,-390.083
622,-390.357
622.1,-390.632
622.2,-390.907
622.3,-391.182
622.4,-391.458
622.5,-391.733
622.6,-392.009
622.7,-392.286
622.8,-392.562
622.9,-392.839
623,-393.116
623.1,-393.393
623.2,-393.67
623.3,-393.948
623.4,-394.225
623.5,-394.503
623.6,-394.782
623.7,-395.06
623.8,-395.339
623.9,-395.618
624,-395.897
624.1,-396.177
624.2,-396.457
624.3,-396.736
624.4,-397.017
624.5,-397.297
624.6,-397.578
624.7,-397.859
624.8,-398.14
624.9,-398.421
625,-398.703
625.1,-398.985
625.2,-399.267
625.3,-399.549
625.4,-399.832
625.5,-400.115
625.6,-400.398
625.7,-400.681
625.8,-400.965
625.9,-401.249
626,-401.533
626.1,-401.817
626.2,-402.102
626.3,-402.386
626.4,-402.671
626.5,-402.957
626.6,-403.242
626.7,-403.528
626.8,-403.814
626.9,-404.1
627,-404.387
627.1,-404.674
627.2,-404.961
627.3,-405.248
627.4,-405.536
627.5,-405.823
627.6,-406.111
627.7,-406.4
627.8,-406.688
627.9,-406.977
628,-407.266
628.1,-407.555
628.2,-407.845
628.3,-408.135
628.4,-408.425
628.5,-408.715
628.6,-409.006
628.7,-409.296
628.8,-409.587
628.9,-409.879
629,-410.17
629.1,-410.462
629.2,-410.754
629.3,-411.047
629.4,-411.339
629.5,-411.632
629.6,-411.925
629.7,-412.218
629.8,-412.512
629.9,-412.806
630,-413.1
630.1,-413.394
630.2,-413.689
630.3,-413.984
630.4,-414.279
630.5,-414.574
630.6,-414.87
630.7,-415.166
630.8,-415.462
630.9,-415.759
631,-416.055
631.1,-416.352
631.2,-416.65
631.3,-416.947
631.4,-417.245
631.5,-417.543
631.6,-417.841
631.7,-418.14
631.8,-418.439
631.9,-418.738
632,-419.037
632.1,-419.337
632.2,-419.636
632.3,-419.937
632.4,-420.237
632.5,-420.538
632.6,-420.839
632.7,-421.14
632.8,-421.441
632.9,-421.743
633,-422.045
633.1,-422.347
633.2,-422.65
633.3,-422.953
633.4,-423.256
633.5,-423.559
633.6,-423.863
633.7,-424.167
633.8,-424.471
633.9,-424.775
634,-425.08
634.1,-425.385
634.2,-425.69
634.3,-425.996
634.4,-426.301
634.5,-426.608
634.6,-426.914
634.7,-427.22
634.8,-427.527
634.9,-427.835
635,-428.142
635.1,-428.45
635.2,-428.758
635.3,-429.066
635.4,-429.374
635.5,-429.683
635.6,-429.992
635.7,-430.302
635.8,-430.611
635.9,-430.921
636,-431.232
636.1,-431.542
636.2,-431.853
636.3,-432.164
636.4,-432.475
636.5,-432.787
636.6,-433.099
636.7,-433.411
636.8,-433.723
636.9,-434.036
637,-434.349
637.1,-434.662
637.2,-434.976
637.3,-435.29
637.4,-435.604
637.5,-435.918
637.6,-436.233
637.7,-436.548
637.8,-436.863
637.9,-437.179
638,-437.495
638.1,-437.811
638.2,-438.127
638.3,-438.444
638.4,-438.761
638.5,-439.078
638.6,-439.396
638.7,-439.714
638.8,-440.032
638.9,-440.351
639,-440.669
639.1,-440.988
639.2,-441.308
639.3,-441.627
639.4,-441.947
639.5,-442.267
639.6,-442.588
639.7,-442.909
639.8,-443.23
639.9,-443.551
640,-443.873
640.1,-444.195
640.2,-444.517
640.3,-444.84
640.4,-445.162
640.5,-445.486
640.6,-445.809
640.7,-446.133
640.8,-446.457
640.9,-446.781
641,-447.106
641.1,-447.431
641.2,-447.756
641.3,-448.081
641.4,-448.407
641.5,-448.733
641.6,-449.06
641.7,-449.387
641.8,-449.714
641.9,-450.041
642,-450.369
642.1,-450.697
642.2,-451.025
642.3,-451.353
642.4,-451.682
642.5,-452.011
642.6,-452.341
642.7,-452.671
642.8,-453.001
642.9,-453.331
643,-453.662
643.1,-453.993
643.2,-454.324
643.3,-454.656
643.4,-454.988
643.5,-455.32
643.6,-455.652
643.7,-455.985
643.8,-456.318
643.9,-456.652
644,-456.986
644.1,-457.32
644.2,-457.654
644.3,-457.989
644.4,-458.324
644.5,-458.659
644.6,-458.995
644.7,-459.331
644.8,-459.667
644.9,-460.004
645,-460.34
645.1,-460.678
645.2,-461.015
645.3,-461.353
645.4,-461.691
645.5,-462.03
645.6,-462.369
645.7,-462.708
645.8,-463.047
645.9,-463.387
646,-463.727
646.1,-464.067
646.2,-464.408
646.3,-464.749
646.4,-465.09
646.5,-465.432
646.6,-465.774
646.7,-466.117
646.8,-466.459
646.9,-466.802
647,-467.145
647.1,-467.489
647.2,-467.833
647.3,-468.177
647.4,-468.522
647.5,-468.867
647.6,-469.212
647.7,-469.558
647.8,-469.904
647.9,-470.25
648,-470.596
648.1,-470.943
648.2,-471.291
648.3,-471.638
648.4,-471.986
648.5,-472.334
648.6,-472.683
648.7,-473.032
648.8,-473.381
648.9,-473.73
649,-474.08
649.1,-474.43
649.2,-474.781
649.3,-475.132
649.4,-475.483
649.5,-475.835
649.6,-476.187
649.7,-476.539
649.8,-476.891
649.9,-477.244
650,-477.598
650.1,-477.951
650.2,-478.305
650.3,-478.659
650.4,-479.014
650.5,-479.369
650.6,-479.724
650.7,-480.08
650.8,-480.436
650.9,-480.792
651,-481.149
651.1,-481.506
651.2,-481.863
651.3,-482.221
651.4,-482.579
651.5,-482.937
651.6,-483.296
651.7,-483.655
651.8,-484.014
651.9,-484.374
652,-484.734
652.1,-485.095
652.2,-485.455
652.3,-485.816
652.4,-486.178
652.5,-486.54
652.6,-486.902
652.7,-487.265
652.8,-487.628
652.9,-487.991
653,-488.354
653.1,-488.718
653.2,-489.083
653.3,-489.447
653.4,-489.812
653.5,-490.178
653.6,-490.544
653.7,-490.91
653.8,-491.276
653.9,-491.643
654,-492.01
654.1,-492.378
654.2,-492.745
654.3,-493.114
654.4,-493.482
654.5,-493.851
654.6,-494.221
654.7,-494.59
654.8,-494.96
654.9,-495.331
655,-495.702
655.1,-496.073
655.2,-496.444
655.3,-496.816
655.4,-497.188
655.5,-497.561
655.6,-497.934
655.7,-498.307
655.8,-498.681
655.9,-499.055
656,-499.429
656.1,-499.804
656.2,-500.179
656.3,-500.555
656.4,-500.931
656.5,-501.307
656.6,-501.684
656.7,-502.061
656.8,-502.438
656.9,-502.816
657,-503.194
657.1,-503.573
657.2,-503.952
657.3,-504.331
657.4,-504.711
657.5,-505.091
657.6,-505.471
657.7,-505.852
657.8,-506.233
657.9,-506.615
658,-506.997
658.1,-507.379
658.2,-507.762
658.3,-508.145
658.4,-508.528
658.5,-508.912
658.6,-509.296
658.7,-509.681
658.8,-510.066
658.9,-510.451
659,-510.837
659.1,-511.223
659.2,-511.61
659.3,-511.997
659.4,-512.384
659.5,-512.772
659.6,-513.16
659.7,-513.548
659.8,-513.937
659.9,-514.326
660,-514.716
660.1,-515.106
660.2,-515.496
660.3,-515.887
660.4,-516.278
660.5,-516.67
660.6,-517.062
660.7,-517.455
660.8,-517.847
660.9,-518.241
661,-518.634
661.1,-519.028
661.2,-519.423
661.3,-519.817
661.4,-520.212
661.5,-520.608
661.6,-521.004
661.7,-521.4
661.8,-521.797
661.9,-522.194
662,-522.592
662.1,-522.99
662.2,-523.388
662.3,-523.787
662.4,-524.186
662.5,-524.586
662.6,-524.986
662.7,-525.387
662.8,-525.787
662.9,-526.189
663,-526.59
663.1,-526.992
663.2,-527.395
663.3,-527.798
663.4,-528.201
663.5,-528.605
663.6,-529.009
663.7,-529.414
663.8,-529.818
663.9,-530.224
664,-530.63
664.1,-531.036
664.2,-531.442
664.3,-531.85
664.4,-532.257
664.5,-532.665
664.6,-533.073
664.7,-533.482
664.8,-533.891
664.9,-534.301
665,-534.711
665.1,-535.121
665.2,-535.532
665.3,-535.943
665.4,-536.355
665.5,-536.767
665.6,-537.179
665.7,-537.592
665.8,-538.006
665.9,-538.42
666,-538.834
666.1,-539.248
666.2,-539.664
666.3,-540.079
666.4,-540.495
666.5,-540.911
666.6,-541.328
666.7,-541.745
666.8,-542.163
666.9,-542.581
667,-543
667.1,-543.419
667.2,-543.838
667.3,-544.258
667.4,-544.678
667.5,-545.099
667.6,-545.52
667.7,-545.942
667.8,-546.364
667.9,-546.787
668,-547.21
668.1,-547.633
668.2,-548.057
668.3,-548.481
668.4,-548.906
668.5,-549.331
668.6,-549.757
668.7,-550.183
668.8,-550.609
668.9,-551.036
669,-551.464
669.1,-551.891
669.2,-552.32
669.3,-552.748
669.4,-553.178
669.5,-553.607
669.6,-554.037
669.7,-554.468
669.8,-554.899
669.9,-555.331
670,-555.762
670.1,-556.195
670.2,-556.628
670.3,-557.061
670.4,-557.495
670.5,-557.929
670.6,-558.364
670.7,-558.799
670.8,-559.234
670.9,-559.671
671,-560.107
671.1,-560.544
671.2,-560.982
671.3,-561.419
671.4,-561.858
671.5,-562.297
671.6,-562.736
671.7,-563.176
671.8,-563.616
671.9,-564.057
672,-564.498
672.1,-564.94
672.2,-565.382
672.3,-565.825
672.4,-566.268
672.5,-566.711
672.6,-567.155
672.7,-567.6
672.8,-568.045
672.9,-568.49
673,-568.936
673.1,-569.383
673.2,-569.83
673.3,-570.277
673.4,-570.725
673.5,-571.173
673.6,-571.622
673.7,-572.072
673.8,-572.521
673.9,-572.972
674,-573.422
674.1,-573.874
674.2,-574.325
674.3,-574.778
674.4,-575.23
674.5,-575.684
674.6,-576.137
674.7,-576.592
674.8,-577.046
674.9,-577.502
675,-577.957
675.1,-578.413
675.2,-578.87
675.3,-579.327
675.4,-579.785
675.5,-580.243
675.6,-580.702
675.7,-581.161
675.8,-581.621
675.9,-582.081
676,-582.541
676.1,-583.003
676.2,-583.464
676.3,-583.927
676.4,-584.389
676.5,-584.852
676.6,-585.316
676.7,-585.78
676.8,-586.245
676.9,-586.71
677,-587.176
677.1,-587.642
677.2,-588.109
677.3,-588.576
677.4,-589.044
677.5,-589.512
677.6,-589.981
677.7,-590.451
677.8,-590.92
677.9,-591.391
678,-591.862
678.1,-592.333
678.2,-592.805
678.3,-593.278
678.4,-593.75
678.5,-594.224
678.6,-594.698
678.7,-595.173
678.8,-595.648
678.9,-596.123
679,-596.599
679.1,-597.076
679.2,-597.553
679.3,-598.031
679.4,-598.509
679.5,-598.988
679.6,-599.467
679.7,-599.947
679.8,-600.427
679.9,-600.908
680,-601.39
680.1,-601.872
680.2,-602.354
680.3,-602.837
680.4,-603.321
680.5,-603.805
680.6,-604.29
680.7,-604.775
680.8,-605.261
680.9,-605.747
681,-606.234
681.1,-606.721
681.2,-607.209
681.3,-607.698
681.4,-608.187
681.5,-608.677
681.6,-609.167
681.7,-609.657
681.8,-610.149
681.9,-610.64
682,-611.133
682.1,-611.626
682.2,-612.119
682.3,-612.613
682.4,-613.108
682.5,-613.603
682.6,-614.099
682.7,-614.595
682.8,-615.092
682.9,-615.589
683,-616.087
683.1,-616.586
683.2,-617.085
683.3,-617.584
683.4,-618.085
683.5,-618.585
683.6,-619.087
683.7,-619.589
683.8,-620.091
683.9,-620.594
684,-621.098
684.1,-621.602
684.2,-622.107
684.3,-622.612
684.4,-623.118
684.5,-623.625
684.6,-624.132
684.7,-624.64
684.8,-625.148
684.9,-625.657
685,-626.166
685.1,-626.676
685.2,-627.187
685.3,-627.698
685.4,-628.21
685.5,-628.722
685.6,-629.235
685.7,-629.749
685.8,-630.263
685.9,-630.778
686,-631.293
686.1,-631.809
686.2,-632.325
686.3,-632.842
686.4,-633.36
686.5,-633.878
686.6,-634.397
686.7,-634.917
686.8,-635.437
686.9,-635.958
687,-636.479
687.1,-637.001
687.2,-637.524
687.3,-638.047
687.4,-638.57
687.5,-639.095
687.6,-639.62
687.7,-640.145
687.8,-640.671
687.9,-641.198
688,-641.726
688.1,-642.254
688.2,-642.782
688.3,-643.312
688.4,-643.842
688.5,-644.372
688.6,-644.903
688.7,-645.435
688.8,-645.967
688.9,-646.5
689,-647.034
689.1,-647.568
689.2,-648.103
689.3,-648.639
689.4,-649.175
689.5,-649.711
689.6,-650.249
689.7,-650.787
689.8,-651.326
689.9,-651.865
690,-652.405
690.1,-652.945
690.2,-653.487
690.3,-654.028
690.4,-654.571
690.5,-655.114
690.6,-655.658
690.7,-656.202
690.8,-656.747
690.9,-657.293
691,-657.839
691.1,-658.386
691.2,-658.934
691.3,-659.482
691.4,-660.031
691.5,-660.581
691.6,-661.131
691.7,-661.682
691.8,-662.234
691.9,-662.786
692,-663.339
692.1,-663.892
692.2,-664.447
692.3,-665.002
692.4,-665.557
692.5,-666.113
692.6,-666.67
692.7,-667.228
692.8,-667.786
692.9,-668.345
693,-668.904
693.1,-669.465
693.2,-670.026
693.3,-670.587
693.4,-671.149
693.5,-671.712
693.6,-672.276
693.7,-672.84
693.8,-673.405
693.9,-673.971
694,-674.537
694.1,-675.104
694.2,-675.672
694.3,-676.24
694.4,-676.809
694.5,-677.379
694.6,-677.95
694.7,-678.521
694.8,-679.093
694.9,-679.665
695,-680.238
695.1,-680.812
695.2,-681.387
695.3,-681.962
695.4,-682.538
695.5,-683.115
695.6,-683.693
695.7,-684.271
695.8,-684.85
695.9,-685.429
696,-686.009
696.1,-686.59
696.2,-687.172
696.3,-687.754
696.4,-688.338
696.5,-688.921
696.6,-689.506
696.7,-690.091
696.8,-690.677
696.9,-691.264
697,-691.851
697.1,-692.44
697.2,-693.028
697.3,-693.618
697.4,-694.208
697.5,-694.799
697.6,-695.391
697.7,-695.984
697.8,-696.577
697.9,-697.171
698,-697.766
698.1,-698.361
698.2,-698.957
698.3,-699.554
698.4,-700.152
698.5,-700.75
698.6,-701.35
698.7,-701.95
698.8,-702.55
698.9,-703.152
699,-703.754
699.1,-704.357
699.2,-704.96
699.3,-705.565
699.4,-706.17
699.5,-706.776
699.6,-707.382
699.7,-707.99
699.8,-708.598
699.9,-709.207
700,-709.817
700.1,-710.427
700.2,-711.039
700.3,-711.651
700.4,-712.263
700.5,-712.877
700.6,-713.491
700.7,-714.106
700.8,-714.722
700.9,-715.339
701,-715.956
701.1,-716.575
701.2,-717.194
701.3,-717.813
701.4,-718.434
701.5,-719.055
701.6,-719.677
701.7,-720.3
701.8,-720.924
701.9,-721.548
702,-722.174
702.1,-722.8
702.2,-723.427
702.3,-724.054
702.4,-724.683
702.5,-725.312
702.6,-725.942
702.7,-726.573
702.8,-727.205
702.9,-727.837
703,-728.471
703.1,-729.105
703.2,-729.74
703.3,-730.375
703.4,-731.012
703.5,-731.649
703.6,-732.288
703.7,-732.927
703.8,-733.566
703.9,-734.207
704,-734.849
704.1,-735.491
704.2,-736.134
704.3,-736.778
704.4,-737.423
704.5,-738.068
704.6,-738.715
704.7,-739.362
704.8,-740.01
704.9,-740.659
705,-741.309
705.1,-741.96
705.2,-742.611
705.3,-743.263
705.4,-743.917
705.5,-744.571
705.6,-745.225
705.7,-745.881
705.8,-746.538
705.9,-747.195
706,-747.853
706.1,-748.513
706.2,-749.173
706.3,-749.833
706.4,-750.495
706.5,-751.158
706.6,-751.821
706.7,-752.486
706.8,-753.151
706.9,-753.817
707,-754.484
707.1,-755.152
707.2,-755.82
707.3,-756.49
707.4,-757.16
707.5,-757.832
707.6,-758.504
707.7,-759.177
707.8,-759.851
707.9,-760.526
708,-761.202
708.1,-761.878
708.2,-762.556
708.3,-763.234
708.4,-763.914
708.5,-764.594
708.6,-765.275
708.7,-765.957
708.8,-766.64
708.9,-767.324
709,-768.009
709.1,-768.694
709.2,-769.381
709.3,-770.068
709.4,-770.757
709.5,-771.446
709.6,-772.136
709.7,-772.828
709.8,-773.52
709.9,-774.213
710,-774.907
710.1,-775.602
710.2,-776.297
710.3,-776.994
710.4,-777.692
710.5,-778.391
710.6,-779.09
710.7,-779.791
710.8,-780.492
710.9,-781.194
711,-781.898
711.1,-782.602
711.2,-783.307
711.3,-784.013
711.4,-784.721
711.5,-785.429
711.6,-786.138
711.7,-786.848
711.8,-787.559
711.9,-788.271
712,-788.983
712.1,-789.697
712.2,-790.412
712.3,-791.128
712.4,-791.845
712.5,-792.562
712.6,-793.281
712.7,-794.001
712.8,-794.722
712.9,-795.443
713,-796.166
713.1,-796.89
713.2,-797.614
713.3,-798.34
713.4,-799.066
713.5,-799.794
713.6,-800.523
713.7,-801.252
713.8,-801.983
713.9,-802.714
714,-803.447
714.1,-804.181
714.2,-804.915
714.3,-805.651
714.4,-806.388
714.5,-807.125
714.6,-807.864
714.7,-808.604
714.8,-809.344
714.9,-810.086
715,-810.829
715.1,-811.573
715.2,-812.318
715.3,-813.064
715.4,-813.81
715.5,-814.558
715.6,-815.307
715.7,-816.057
715.8,-816.808
715.9,-817.561
716,-818.314
716.1,-819.068
716.2,-819.823
716.3,-820.58
716.4,-821.337
716.5,-822.095
716.6,-822.855
716.7,-823.615
716.8,-824.377
716.9,-825.14
717,-825.904
717.1,-826.668
717.2,-827.434
717.3,-828.201
717.4,-828.969
717.5,-829.739
717.6,-830.509
717.7,-831.28
717.8,-832.053
717.9,-832.826
718,-833.601
718.1,-834.376
718.2,-835.153
718.3,-835.931
718.4,-836.71
718.5,-837.49
718.6,-838.271
718.7,-839.054
718.8,-839.837
718.9,-840.622
719,-841.407
719.1,-842.194
719.2,-842.982
719.3,-843.771
719.4,-844.561
719.5,-845.353
719.6,-846.145
719.7,-846.938
719.8,-847.733
719.9,-848.529
720,-849.326
720.1,-850.124
720.2,-850.923
720.3,-851.724
720.4,-852.525
720.5,-853.328
720.6,-854.132
720.7,-854.937
720.8,-855.743
720.9,-856.55
721,-857.359
721.1,-858.169
721.2,-858.979
721.3,-859.792
721.4,-860.605
721.5,-861.419
721.6,-862.235
721.7,-863.051
721.8,-863.869
721.9,-864.689
722,-865.509
722.1,-866.33
722.2,-867.153
722.3,-867.977
722.4,-868.802
722.5,-869.628
722.6,-870.456
722.7,-871.285
722.8,-872.115
722.9,-872.946
723,-873.778
723.1,-874.612
723.2,-875.447
723.3,-876.283
723.4,-877.12
723.5,-877.958
723.6,-878.798
723.7,-879.639
723.8,-880.481
723.9,-881.325
724,-882.17
724.1,-883.016
724.2,-883.863
724.3,-884.711
724.4,-885.561
724.5,-886.412
724.6,-887.264
724.7,-888.118
724.8,-888.973
724.9,-889.829
725,-890.686
725.1,-891.544
725.2,-892.404
725.3,-893.266
725.4,-894.128
725.5,-894.992
725.6,-895.857
725.7,-896.723
725.8,-897.591
725.9,-898.46
726,-899.33
726.1,-900.201
726.2,-901.074
726.3,-901.948
726.4,-902.824
726.5,-903.701
726.6,-904.579
726.7,-905.458
726.8,-906.339
726.9,-907.221
727,-908.104
727.1,-908.989
727.2,-909.875
727.3,-910.763
727.4,-911.651
727.5,-912.542
727.6,-913.433
727.7,-914.326
727.8,-915.22
727.9,-916.116
728,-917.013
728.1,-917.911
728.2,-918.81
728.3,-919.712
728.4,-920.614
728.5,-921.518
728.6,-922.423
728.7,-923.329
728.8,-924.237
728.9,-925.147
729,-926.057
729.1,-926.97
729.2,-927.883
729.3,-928.798
729.4,-929.714
729.5,-930.632
729.6,-931.551
729.7,-932.472
729.8,-933.394
729.9,-934.317
730,-935.242
730.1,-936.168
730.2,-937.096
730.3,-938.025
730.4,-938.956
730.5,-939.888
730.6,-940.821
730.7,-941.756
730.8,-942.693
730.9,-943.631
731,-944.57
731.1,-945.511
731.2,-946.453
731.3,-947.397
731.4,-948.342
731.5,-949.289
731.6,-950.237
731.7,-951.186
731.8,-952.138
731.9,-953.09
732,-954.044
732.1,-955
732.2,-955.957
732.3,-956.916
732.4,-957.876
732.5,-958.838
732.6,-959.801
732.7,-960.765
732.8,-961.732
732.9,-962.699
733,-963.669
733.1,-964.64
733.2,-965.612
733.3,-966.586
733.4,-967.561
733.5,-968.538
733.6,-969.517
733.7,-970.497
733.8,-971.479
733.9,-972.462
734,-973.447
734.1,-974.433
734.2,-975.421
734.3,-976.411
734.4,-977.402
734.5,-978.395
734.6,-979.389
734.7,-980.385
734.8,-981.382
734.9,-982.382
735,-983.382
735.1,-984.385
735.2,-985.389
735.3,-986.394
735.4,-987.401
735.5,-988.41
735.6,-989.421
735.7,-990.433
735.8,-991.447
735.9,-992.462
736,-993.479
736.1,-994.498
736.2,-995.518
736.3,-996.54
736.4,-997.564
736.5,-998.589
736.6,-999.616
736.7,-1000.645
736.8,-1001.675
736.9,-1002.707
737,-1003.741
737.1,-1004.777
737.2,-1005.814
737.3,-1006.853
737.4,-1007.893
737.5,-1008.935
737.6,-1009.979
737.7,-1011.025
737.8,-1012.073
737.9,-1013.122
738,-1014.173
738.1,-1015.225
738.2,-1016.28
738.3,-1017.336
738.4,-1018.394
738.5,-1019.453
738.6,-1020.514
738.7,-1021.578
738.8,-1022.643
738.9,-1023.709
739,-1024.778
739.1,-1025.848
739.2,-1026.92
739.3,-1027.994
739.4,-1029.069
739.5,-1030.147
739.6,-1031.226
739.7,-1032.307
739.8,-1033.39
739.9,-1034.474
740,-1035.561
740.1,-1036.649
740.2,-1037.739
740.3,-1038.831
740.4,-1039.925
740.5,-1041.02
740.6,-1042.118
740.7,-1043.217
740.8,-1044.319
740.9,-1045.422
741,-1046.526
741.1,-1047.633
741.2,-1048.742
741.3,-1049.853
741.4,-1050.965
741.5,-1052.079
741.6,-1053.196
741.7,-1054.314
741.8,-1055.434
741.9,-1056.556
742,-1057.68
742.1,-1058.805
742.2,-1059.933
742.3,-1061.063
742.4,-1062.194
742.5,-1063.328
742.6,-1064.463
742.7,-1065.601
742.8,-1066.74
742.9,-1067.882
743,-1069.025
743.1,-1070.17
743.2,-1071.317
743.3,-1072.467
743.4,-1073.618
743.5,-1074.771
743.6,-1075.926
743.7,-1077.084
743.8,-1078.243
743.9,-1079.404
744,-1080.567
744.1,-1081.733
744.2,-1082.9
744.3,-1084.069
744.4,-1085.241
744.5,-1086.414
744.6,-1087.59
744.7,-1088.767
744.8,-1089.947
744.9,-1091.129
745,-1092.313
745.1,-1093.498
745.2,-1094.686
745.3,-1095.876
745.4,-1097.069
745.5,-1098.263
745.6,-1099.459
745.7,-1100.658
745.8,-1101.858
745.9,-1103.061
746,-1104.266
746.1,-1105.473
746.2,-1106.682
746.3,-1107.893
746.4,-1109.106
746.5,-1110.322
746.6,-1111.54
746.7,-1112.76
746.8,-1113.982
746.9,-1115.206
747,-1116.432
747.1,-1117.661
747.2,-1118.892
747.3,-1120.125
747.4,-1121.36
747.5,-1122.598
747.6,-1123.837
747.7,-1125.079
747.8,-1126.323
747.9,-1127.57
748,-1128.819
748.1,-1130.069
748.2,-1131.323
748.3,-1132.578
748.4,-1133.836
748.5,-1135.096
748.6,-1136.358
748.7,-1137.623
748.8,-1138.889
748.9,-1140.159
749,-1141.43
749.1,-1142.704
749.2,-1143.98
749.3,-1145.259
749.4,-1146.539
749.5,-1147.822
749.6,-1149.108
749.7,-1150.396
749.8,-1151.686
749.9,-1152.979
750,-1154.274
750.1,-1155.571
750.2,-1156.871
750.3,-1158.173
750.4,-1159.477
750.5,-1160.784
750.6,-1162.094
750.7,-1163.405
750.8,-1164.72
750.9,-1166.036
751,-1167.355
751.1,-1168.677
751.2,-1170.001
751.3,-1171.327
751.4,-1172.656
751.5,-1173.988
751.6,-1175.321
751.7,-1176.658
751.8,-1177.997
751.9,-1179.338
752,-1180.682
752.1,-1182.028
752.2,-1183.377
752.3,-1184.729
752.4,-1186.083
752.5,-1187.44
752.6,-1188.799
752.7,-1190.16
752.8,-1191.525
752.9,-1192.892
753,-1194.261
753.1,-1195.633
753.2,-1197.008
753.3,-1198.385
753.4,-1199.765
753.5,-1201.147
753.6,-1202.532
753.7,-1203.92
753.8,-1205.311
753.9,-1206.704
754,-1208.099
754.1,-1209.498
754.2,-1210.899
754.3,-1212.303
754.4,-1213.709
754.5,-1215.118
754.6,-1216.53
754.7,-1217.945
754.8,-1219.362
754.9,-1220.782
755,-1222.205
755.1,-1223.63
755.2,-1225.058
755.3,-1226.49
755.4,-1227.923
755.5,-1229.36
755.6,-1230.799
755.7,-1232.242
755.8,-1233.687
755.9,-1235.134
756,-1236.585
756.1,-1238.038
756.2,-1239.495
756.3,-1240.954
756.4,-1242.416
756.5,-1243.881
756.6,-1245.349
756.7,-1246.819
756.8,-1248.293
756.9,-1249.769
757,-1251.248
757.1,-1252.731
757.2,-1254.216
757.3,-1255.704
757.4,-1257.195
757.5,-1258.689
757.6,-1260.186
757.7,-1261.686
757.8,-1263.189
757.9,-1264.695
758,-1266.204
758.1,-1267.716
758.2,-1269.231
758.3,-1270.748
758.4,-1272.269
758.5,-1273.794
758.6,-1275.321
758.7,-1276.851
758.8,-1278.384
758.9,-1279.92
759,-1281.46
759.1,-1283.002
759.2,-1284.548
759.3,-1286.096
759.4,-1287.648
759.5,-1289.203
759.6,-1290.761
759.7,-1292.323
759.8,-1293.887
759.9,-1295.455
760,-1297.025
760.1,-1298.599
760.2,-1300.177
760.3,-1301.757
760.4,-1303.341
760.5,-1304.928
760.6,-1306.518
760.7,-1308.111
760.8,-1309.708
760.9,-1311.308
761,-1312.911
761.1,-1314.517
761.2,-1316.127
761.3,-1317.74
761.4,-1319.357
761.5,-1320.977
761.6,-1322.6
761.7,-1324.226
761.8,-1325.856
761.9,-1327.489
762,-1329.126
762.1,-1330.766
762.2,-1332.41
762.3,-1334.056
762.4,-1335.707
762.5,-1337.361
762.6,-1339.018
762.7,-1340.678
762.8,-1342.343
762.9,-1344.01
763,-1345.681
763.1,-1347.356
763.2,-1349.034
763.3,-1350.716
763.4,-1352.401
763.5,-1354.09
763.6,-1355.783
763.7,-1357.479
763.8,-1359.178
763.9,-1360.881
764,-1362.588
764.1,-1364.299
764.2,-1366.013
764.3,-1367.73
764.4,-1369.452
764.5,-1371.177
764.6,-1372.905
764.7,-1374.638
764.8,-1376.374
764.9,-1378.114
765,-1379.858
765.1,-1381.605
765.2,-1383.356
765.3,-1385.111
765.4,-1386.87
765.5,-1388.632
765.6,-1390.398
765.7,-1392.168
765.8,-1393.942
765.9,-1395.72
766,-1397.502
766.1,-1399.287
766.2,-1401.077
766.3,-1402.87
766.4,-1404.667
766.5,-1406.468
766.6,-1408.273
766.7,-1410.082
766.8,-1411.895
766.9,-1413.712
767,-1415.533
767.1,-1417.358
767.2,-1419.187
767.3,-1421.02
767.4,-1422.857
767.5,-1424.698
767.6,-1426.543
767.7,-1428.392
767.8,-1430.246
767.9,-1432.103
768,-1433.965
768.1,-1435.83
768.2,-1437.7
768.3,-1439.574
768.4,-1441.453
768.5,-1443.335
768.6,-1445.222
768.7,-1447.112
768.8,-1449.008
768.9,-1450.907
769,-1452.811
769.1,-1454.718
769.2,-1456.631
769.3,-1458.547
769.4,-1460.468
769.5,-1462.393
769.6,-1464.323
769.7,-1466.257
769.8,-1468.195
769.9,-1470.138
770,-1472.085
770.1,-1474.036
770.2,-1475.992
770.3,-1477.953
770.4,-1479.918
770.5,-1481.887
770.6,-1483.861
770.7,-1485.84
770.8,-1487.823
770.9,-1489.81
771,-1491.802
771.1,-1493.799
771.2,-1495.801
771.3,-1497.807
771.4,-1499.817
771.5,-1501.833
771.6,-1503.852
771.7,-1505.877
771.8,-1507.907
771.9,-1509.941
772,-1511.979
772.1,-1514.023
772.2,-1516.071
772.3,-1518.125
772.4,-1520.182
772.5,-1522.245
772.6,-1524.313
772.7,-1526.385
772.8,-1528.463
772.9,-1530.545
773,-1532.632
773.1,-1534.724
773.2,-1536.821
773.3,-1538.923
773.4,-1541.03
773.5,-1543.142
773.6,-1545.259
773.7,-1547.381
773.8,-1549.509
773.9,-1551.641
774,-1553.778
774.1,-1555.92
774.2,-1558.068
774.3,-1560.221
774.4,-1562.379
774.5,-1564.542
774.6,-1566.71
774.7,-1568.883
774.8,-1571.062
774.9,-1573.246
775,-1575.435
775.1,-1577.63
775.2,-1579.83
775.3,-1582.035
775.4,-1584.246
775.5,-1586.462
775.6,-1588.683
775.7,-1590.91
775.8,-1593.142
775.9,-1595.38
776,-1597.623
776.1,-1599.872
776.2,-1602.126
776.3,-1604.386
776.4,-1606.651
776.5,-1608.922
776.6,-1611.199
776.7,-1613.481
776.8,-1615.769
776.9,-1618.062
777,-1620.361
777.1,-1622.666
777.2,-1624.977
777.3,-1627.293
777.4,-1629.616
777.5,-1631.944
777.6,-1634.277
777.7,-1636.617
777.8,-1638.963
777.9,-1641.314
778,-1643.672
778.1,-1646.035
778.2,-1648.404
778.3,-1650.779
778.4,-1653.161
778.5,-1655.548
778.6,-1657.941
778.7,-1660.341
778.8,-1662.746
778.9,-1665.158
779,-1667.576
779.1,-1670
779.2,-1672.43
779.3,-1674.866
779.4,-1677.309
779.5,-1679.758
779.6,-1682.213
779.7,-1684.675
779.8,-1687.143
779.9,-1689.617
780,-1692.098
780.1,-1694.585
780.2,-1697.078
780.3,-1699.578
780.4,-1702.085
780.5,-1704.598
780.6,-1707.117
780.7,-1709.644
780.8,-1712.176
780.9,-1714.716
781,-1717.262
781.1,-1719.815
781.2,-1722.374
781.3,-1724.94
781.4,-1727.513
781.5,-1730.093
781.6,-1732.679
781.7,-1735.273
781.8,-1737.873
781.9,-1740.48
782,-1743.094
782.1,-1745.715
782.2,-1748.344
782.3,-1750.979
782.4,-1753.621
782.5,-1756.27
782.6,-1758.926
782.7,-1761.59
782.8,-1764.26
782.9,-1766.938
783,-1769.623
783.1,-1772.315
783.2,-1775.015
783.3,-1777.722
783.4,-1780.436
783.5,-1783.158
783.6,-1785.886
783.7,-1788.623
783.8,-1791.367
783.9,-1794.118
784,-1796.877
784.1,-1799.643
784.2,-1802.418
784.3,-1805.199
784.4,-1807.988
784.5,-1810.785
784.6,-1813.59
784.7,-1816.403
784.8,-1819.223
784.9,-1822.051
785,-1824.887
785.1,-1827.731
785.2,-1830.583
785.3,-1833.442
785.4,-1836.31
785.5,-1839.186
785.6,-1842.069
785.7,-1844.961
785.8,-1847.861
785.9,-1850.769
786,-1853.686
786.1,-1856.61
786.2,-1859.543
786.3,-1862.484
786.4,-1865.434
786.5,-1868.391
786.6,-1871.358
786.7,-1874.332
786.8,-1877.316
786.9,-1880.307
787,-1883.308
787.1,-1886.316
787.2,-1889.334
787.3,-1892.36
787.4,-1895.395
787.5,-1898.439
787.6,-1901.491
787.7,-1904.552
787.8,-1907.622
787.9,-1910.701
788,-1913.789
788.1,-1916.886
788.2,-1919.992
788.3,-1923.107
788.4,-1926.232
788.5,-1929.365
788.6,-1932.507
788.7,-1935.659
788.8,-1938.82
788.9,-1941.99
789,-1945.17
789.1,-1948.359
789.2,-1951.558
789.3,-1954.766
789.4,-1957.983
789.5,-1961.21
789.6,-1964.447
789.7,-1967.693
789.8,-1970.95
789.9,-1974.215
790,-1977.491
790.1,-1980.776
790.2,-1984.072
790.3,-1987.377
790.4,-1990.692
790.5,-1994.018
790.6,-1997.353
790.7,-2000.698
790.8,-2004.054
790.9,-2007.42
791,-2010.796
791.1,-2014.182
791.2,-2017.579
791.3,-2020.986
791.4,-2024.404
791.5,-2027.832
791.6,-2031.271
791.7,-2034.72
791.8,-2038.18
791.9,-2041.651
792,-2045.132
792.1,-2048.624
792.2,-2052.127
792.3,-2055.641
792.4,-2059.166
792.5,-2062.702
792.6,-2066.249
792.7,-2069.807
792.8,-2073.377
792.9,-2076.957
793,-2080.549
793.1,-2084.152
793.2,-2087.767
793.3,-2091.393
793.4,-2095.03
793.5,-2098.679
793.6,-2102.34
793.7,-2106.012
793.8,-2109.696
793.9,-2113.392
794,-2117.1
794.1,-2120.819
794.2,-2124.551
794.3,-2128.295
794.4,-2132.05
794.5,-2135.818
794.6,-2139.598
794.7,-2143.39
794.8,-2147.195
794.9,-2151.012
795,-2154.841
795.1,-2158.683
795.2,-2162.538
795.3,-2166.405
795.4,-2170.285
795.5,-2174.178
795.6,-2178.083
795.7,-2182.001
795.8,-2185.933
795.9,-2189.877
796,-2193.835
796.1,-2197.805
796.2,-2201.789
796.3,-2205.786
796.4,-2209.797
796.5,-2213.821
796.6,-2217.858
796.7,-2221.909
796.8,-2225.974
796.9,-2230.052
797,-2234.144
797.1,-2238.25
797.2,-2242.37
797.3,-2246.504
797.4,-2250.652
797.5,-2254.815
797.6,-2258.991
797.7,-2263.182
797.8,-2267.387
797.9,-2271.606
798,-2275.84
798.1,-2280.089
798.2,-2284.353
798.3,-2288.631
798.4,-2292.924
798.5,-2297.231
798.6,-2301.554
798.7,-2305.892
798.8,-2310.245
798.9,-2314.614
799,-2318.998
799.1,-2323.397
799.2,-2327.811
799.3,-2332.241
799.4,-2336.687
799.5,-2341.149
799.6,-2345.626
799.7,-2350.12
799.8,-2354.629
799.9,-2359.154
800,-2363.696
800.1,-2368.254
800.2,-2372.828
800.3,-2377.419
800.4,-2382.026
800.5,-2386.65
800.6,-2391.291
800.7,-2395.948
800.8,-2400.622
800.9,-2405.314
801,-2410.022
801.1,-2414.748
801.2,-2419.491
801.3,-2424.251
801.4,-2429.029
801.5,-2433.825
801.6,-2438.638
801.7,-2443.469
801.8,-2448.318
801.9,-2453.185
802,-2458.07
802.1,-2462.973
802.2,-2467.894
802.3,-2472.834
802.4,-2477.793
802.5,-2482.77
802.6,-2487.766
802.7,-2492.78
802.8,-2497.814
802.9,-2502.867
803,-2507.939
803.1,-2513.03
803.2,-2518.14
803.3,-2523.27
803.4,-2528.42
803.5,-2533.59
803.6,-2538.779
803.7,-2543.989
803.8,-2549.218
803.9,-2554.468
804,-2559.738
804.1,-2565.028
804.2,-2570.339
804.3,-2575.671
804.4,-2581.024
804.5,-2586.398
804.6,-2591.792
804.7,-2597.208
804.8,-2602.646
804.9,-2608.105
805,-2613.585
805.1,-2619.087
805.2,-2624.611
805.3,-2630.157
805.4,-2635.726
805.5,-2641.316
805.6,-2646.929
805.7,-2652.565
805.8,-2658.223
805.9,-2663.904
806,-2669.608
806.1,-2675.335
806.2,-2681.085
806.3,-2686.859
806.4,-2692.657
806.5,-2698.478
806.6,-2704.323
806.7,-2710.192
806.8,-2716.085
806.9,-2722.003
807,-2727.945
807.1,-2733.912
807.2,-2739.903
807.3,-2745.92
807.4,-2751.961
807.5,-2758.028
807.6,-2764.12
807.7,-2770.238
807.8,-2776.382
807.9,-2782.551
808,-2788.747
808.1,-2794.969
808.2,-2801.218
808.3,-2807.493
808.4,-2813.795
808.5,-2820.124
808.6,-2826.48
808.7,-2832.863
808.8,-2839.274
808.9,-2845.713
809,-2852.179
809.1,-2858.674
809.2,-2865.197
809.3,-2871.748
809.4,-2878.328
809.5,-2884.937
809.6,-2891.575
809.7,-2898.242
809.8,-2904.939
809.9,-2911.665
810,-2918.421
810.1,-2925.207
810.2,-2932.023
810.3,-2938.87
810.4,-2945.748
810.5,-2952.656
810.6,-2959.596
810.7,-2966.566
810.8,-2973.569
810.9,-2980.603
811,-2987.669
811.1,-2994.767
811.2,-3001.898
811.3,-3009.061
811.4,-3016.258
811.5,-3023.487
811.6,-3030.75
811.7,-3038.046
811.8,-3045.377
811.9,-3052.741
812,-3060.14
812.1,-3067.573
812.2,-3075.041
812.3,-3082.544
812.4,-3090.083
812.5,-3097.657
812.6,-3105.267
812.7,-3112.913
812.8,-3120.595
812.9,-3128.314
813,-3136.07
813.1,-3143.864
813.2,-3151.694
813.3,-3159.563
813.4,-3167.469
813.5,-3175.414
813.6,-3183.398
813.7,-3191.42
813.8,-3199.482
813.9,-3207.583
814,-3215.724
814.1,-3223.904
814.2,-3232.126
814.3,-3240.388
814.4,-3248.691
814.5,-3257.035
814.6,-3265.421
814.7,-3273.849
814.8,-3282.32
814.9,-3290.833
815,-3299.389
815.1,-3307.988
815.2,-3316.631
815.3,-3325.318
815.4,-3334.049
815.5,-3342.825
815.6,-3351.646
815.7,-3360.512
815.8,-3369.424
815.9,-3378.382
816,-3387.387
816.1,-3396.438
816.2,-3405.537
816.3,-3414.683
816.4,-3423.878
816.5,-3433.121
816.6,-3442.412
816.7,-3451.753
816.8,-3461.144
816.9,-3470.584
817,-3480.075
817.1,-3489.616
817.2,-3499.209
817.3,-3508.854
817.4,-3518.551
817.5,-3528.3
817.6,-3538.102
817.7,-3547.958
817.8,-3557.868
817.9,-3567.832
818,-3577.851
818.1,-3587.925
818.2,-3598.054
818.3,-3608.241
818.4,-3618.483
818.5,-3628.783
818.6,-3639.141
818.7,-3649.557
818.8,-3660.032
818.9,-3670.565
819,-3681.159
819.1,-3691.813
819.2,-3702.527
819.3,-3713.303
819.4,-3724.141
819.5,-3735.042
819.6,-3746.005
819.7,-3757.032
819.8,-3768.123
819.9,-3779.278
820,-3790.499
820.1,-3801.786
820.2,-3813.139
820.3,-3824.56
820.4,-3836.048
820.5,-3847.604
820.6,-3859.23
820.7,-3870.925
820.8,-3882.69
820.9,-3894.526
821,-3906.433
821.1,-3918.413
821.2,-3930.466
821.3,-3942.592
821.4,-3954.793
821.5,-3967.069
821.6,-3979.42
821.7,-3991.848
821.8,-4004.353
821.9,-4016.936
822,-4029.597
822.1,-4042.338
822.2,-4055.159
822.3,-4068.061
822.4,-4081.045
822.5,-4094.112
822.6,-4107.261
822.7,-4120.495
822.8,-4133.815
822.9,-4147.219
823,-4160.711
823.1,-4174.291
823.2,-4187.958
823.3,-4201.716
823.4,-4215.563
823.5,-4229.502
823.6,-4243.533
823.7,-4257.657
823.8,-4271.875
823.9,-4286.188
824,-4300.598
824.1,-4315.104
824.2,-4329.708
824.3,-4344.411
824.4,-4359.214
824.5,-4374.119
824.6,-4389.126
824.7,-4404.236
824.8,-4419.45
824.9,-4434.77
825,-4450.197
825.1,-4465.731
825.2,-4481.375
825.3,-4497.128
825.4,-4512.993
825.5,-4528.971
825.6,-4545.062
825.7,-4561.268
825.8,-4577.591
825.9,-4594.032
826,-4610.591
826.1,-4627.271
826.2,-4644.072
826.3,-4660.997
826.4,-4678.045
826.5,-4695.22
826.6,-4712.522
826.7,-4729.953
826.8,-4747.514
826.9,-4765.206
827,-4783.032
827.1,-4800.993
827.2,-4819.09
827.3,-4837.325
827.4,-4855.7
827.5,-4874.216
827.6,-4892.875
827.7,-4911.679
827.8,-4930.629
827.9,-4949.728
828,-4968.976
828.1,-4988.376
828.2,-5007.93
828.3,-5027.639
828.4,-5047.506
828.5,-5067.532
828.6,-5087.72
828.7,-5108.071
828.8,-5128.587
828.9,-5149.271
829,-5170.125
829.1,-5191.151
829.2,-5212.35
829.3,-5233.726
829.4,-5255.28
829.5,-5277.015
829.6,-5298.933
829.7,-5321.037
829.8,-5343.328
829.9,-5365.811
830,-5388.486
830.1,-5411.356
830.2,-5434.425
830.3,-5457.695
830.4,-5481.168
830.5,-5504.847
830.6,-5528.735
830.7,-5552.836
830.8,-5577.151
830.9,-5601.684
831,-5626.437
831.1,-5651.415
831.2,-5676.619
831.3,-5702.054
831.4,-5727.722
831.5,-5753.627
831.6,-5779.773
831.7,-5806.161
831.8,-5832.797
831.9,-5859.684
832,-5886.824
832.1,-5914.223
832.2,-5941.884
832.3,-5969.81
832.4,-5998.006
832.5,-6026.476
832.6,-6055.224
832.7,-6084.253
832.8,-6113.569
832.9,-6143.175
833,-6173.077
833.1,-6203.278
833.2,-6233.783
833.3,-6264.598
833.4,-6295.726
833.5,-6327.173
833.6,-6358.943
833.7,-6391.043
833.8,-6423.477
833.9,-6456.25
834,-6489.369
834.1,-6522.838
834.2,-6556.664
834.3,-6590.852
834.4,-6625.408
834.5,-6660.339
834.6,-6695.65
834.7,-6731.348
834.8,-6767.441
834.9,-6803.933
835,-6840.833
835.1,-6878.146
835.2,-6915.882
835.3,-6954.046
835.4,-6992.646
835.5,-7031.69
835.6,-7071.186
835.7,-7111.142
835.8,-7151.566
835.9,-7192.467
836,-7233.852
836.1,-7275.733
836.2,-7318.116
836.3,-7361.012
836.4,-7404.43
836.5,-7448.38
836.6,-7492.872
836.7,-7537.917
836.8,-7583.524
836.9,-7629.705
837,-7676.471
837.1,-7723.833
837.2,-7771.803
837.3,-7820.394
837.4,-7869.616
837.5,-7919.484
837.6,-7970.01
837.7,-8021.207
837.8,-8073.089
837.9,-8125.671
838,-8178.967
838.1,-8232.991
838.2,-8287.76
838.3,-8343.289
838.4,-8399.594
838.5,-8456.691
838.6,-8514.599
838.7,-8573.334
838.8,-8632.916
838.9,-8693.362
839,-8754.693
839.1,-8816.927
839.2,-8880.086
839.3,-8944.19
839.4,-9009.262
839.5,-9075.324
839.6,-9142.398
839.7,-9210.51
839.8,-9279.683
839.9,-9349.944
840,-9421.317
840.1,-9493.831
840.2,-9567.514
840.3,-9642.394
840.4,-9718.501
840.5,-9795.867
840.6,-9874.523
840.7,-9954.502
840.8,-10035.839
840.9,-10118.569
841,-10202.728
841.1,-10288.356
841.2,-10375.49
841.3,-10464.172
841.4,-10554.444
841.5,-10646.35
841.6,-10739.935
841.7,-10835.246
841.8,-10932.332
841.9,-11031.245
842,-11132.037
842.1,-11234.762
842.2,-11339.478
842.3,-11446.243
842.4,-11555.12
842.5,-11666.173
842.6,-11779.468
842.7,-11895.075
842.8,-12013.066
842.9,-12133.517
843,-12256.506
843.1,-12382.116
843.2,-12510.433
843.3,-12641.545
843.4,-12775.547
843.5,-12912.535
843.6,-13052.613
843.7,-13195.888
843.8,-13342.47
843.9,-13492.478
844,-13646.033
844.1,-13803.266
844.2,-13964.311
844.3,-14129.31
844.4,-14298.411
844.5,-14471.772
844.6,-14649.557
844.7,-14831.939
844.8,-15019.101
844.9,-15211.235
845,-15408.543
845.1,-15611.24
845.2,-15819.551
845.3,-16033.715
845.4,-16253.984
845.5,-16480.626
845.6,-16713.923
845.7,-16954.175
845.8,-17201.701
845.9,-17456.839
846,-17719.947
846.1,-17991.409
846.2,-18271.632
846.3,-18561.049
846.4,-18860.124
846.5,-19169.352
846.6,-19489.263
846.7,-19820.424
846.8,-20163.442
846.9,-20518.97
847,-20887.709
847.1,-21270.414
847.2,-21667.898
847.3,-22081.04
847.4,-22510.788
847.5,-22958.169
847.6,-23424.298
847.7,-23910.382
847.8,-24417.74
847.9,-24947.803
848,-25502.14
848.1,-26082.464
848.2,-26690.653
848.3,-27328.772
848.4,-27999.096
848.5,-28704.134
848.6,-29446.666
848.7,-30229.773
848.8,-31056.887
848.9,-31931.836
849,-32858.907
849.1,-33842.913
849.2,-34889.281
849.3,-36004.149
849.4,-37194.489
849.5,-38468.25
849.6,-39834.542
849.7,-41303.848
849.8,-42888.301
849.9,-44602.012
850,-46461.502
850.1,-48486.229
850.2,-50699.277
850.3,-53128.239
850.4,-55806.379
850.5,-58774.16
850.6,-62081.31
850.7,-65789.633
850.8,-69976.909
850.9,-74742.416
851,-80214.905
851.1,-86564.42
851.2,-94020.291
851.3,-102899.436
851.4,-113652.599
851.5,-126943.318
851.6,-143790.313
851.7,-165841.84
851.8,-195950.86
851.9,-239521.737
852,-308183.71
852.1,-432377.771
852.2,-725222.387
852.3,-2256928.398
852.4,2021620.098
852.5,697187.341
852.6,420877.267
852.7,301237.337
852.8,234449.252
852.9,191826.805
853,162263.165
853.1,140553.707
853.2,123935.215
853.3,110804.609
853.4,100167.922
853.5,91376.101
853.6,83987.336
853.7,77690.461
853.8,72259.988
853.9,67528.516
854,63369.161
854.1,59683.994
854.2,56396.231
854.3,53444.815
854.4,50780.587
854.5,48363.522
854.6,46160.702
854.7,44144.806
854.8,42292.968
854.9,40585.907
855,39007.246
855.1,37542.989
855.2,36181.105
855.3,34911.188
855.4,33724.201
855.5,32612.248
855.6,31568.408
855.7,30586.584
855.8,29661.386
855.9,28788.03
856,27962.257
856.1,27180.261
856.2,26438.631
856.3,25734.302
856.4,25064.512
856.5,24426.762
856.6,23818.792
856.7,23238.548
856.8,22684.158
856.9,22153.92
857,21646.272
857.1,21159.789
857.2,20693.159
857.3,20245.18
857.4,19814.741
857.5,19400.821
857.6,19002.474
857.7,18618.825
857.8,18249.066
857.9,17892.444
858,17548.259
858.1,17215.863
858.2,16894.65
858.3,16584.054
858.4,16283.547
858.5,15992.638
858.6,15710.862
858.7,15437.789
858.8,15173.011
858.9,14916.149
859,14666.842
859.1,14424.755
859.2,14189.569
859.3,13960.987
859.4,13738.724
859.5,13522.516
859.6,13312.11
859.7,13107.268
859.8,12907.765
859.9,12713.387
860,12523.933
860.1,12339.209
860.2,12159.035
860.3,11983.237
860.4,11811.651
860.5,11644.12
860.6,11480.496
860.7,11320.637
860.8,11164.409
860.9,11011.681
861,10862.333
861.1,10716.246
861.2,10573.308
861.3,10433.414
861.4,10296.46
861.5,10162.349
861.6,10030.987
861.7,9902.285
861.8,9776.157
861.9,9652.521
862,9531.298
862.1,9412.413
862.2,9295.792
862.3,9181.367
862.4,9069.07
862.5,8958.837
862.6,8850.607
862.7,8744.32
862.8,8639.918
862.9,8537.348
863,8436.555
863.1,8337.489
863.2,8240.101
863.3,8144.343
863.4,8050.17
863.5,7957.538
863.6,7866.403
863.7,7776.726
863.8,7688.467
863.9,7601.587
864,7516.049
864.1,7431.818
864.2,7348.859
864.3,7267.139
864.4,7186.625
864.5,7107.286
864.6,7029.092
864.7,6952.014
864.8,6876.023
864.9,6801.091
865,6727.193
865.1,6654.302
865.2,6582.393
865.3,6511.442
865.4,6441.425
865.5,6372.32
865.6,6304.104
865.7,6236.755
865.8,6170.254
865.9,6104.578
866,6039.71
866.1,5975.629
866.2,5912.316
866.3,5849.754
866.4,5787.925
866.5,5726.811
866.6,5666.397
866.7,5606.664
866.8,5547.599
866.9,5489.185
867,5431.407
867.1,5374.25
867.2,5317.701
867.3,5261.745
867.4,5206.369
867.5,5151.559
867.6,5097.302
867.7,5043.586
867.8,4990.398
867.9,4937.727
868,4885.56
868.1,4833.886
868.2,4782.694
868.3,4731.973
868.4,4681.712
868.5,4631.901
868.6,4582.528
868.7,4533.585
868.8,4485.062
868.9,4436.948
869,4389.234
869.1,4341.912
869.2,4294.971
869.3,4248.404
869.4,4202.201
869.5,4156.353
869.6,4110.854
869.7,4065.693
869.8,4020.864
869.9,3976.358
870,3932.168
870.1,3888.286
870.2,3844.704
870.3,3801.415
870.4,3758.412
870.5,3715.687
870.6,3673.234
870.7,3631.046
870.8,3589.116
870.9,3547.438
871,3506.004
871.1,3464.808
871.2,3423.844
871.3,3383.106
871.4,3342.587
871.5,3302.281
871.6,3262.182
871.7,3222.285
871.8,3182.583
871.9,3143.07
872,3103.741
872.1,3064.59
872.2,3025.612
872.3,2986.8
872.4,2948.15
872.5,2909.656
872.6,2871.312
872.7,2833.113
872.8,2795.054
872.9,2757.13
873,2719.335
873.1,2681.664
873.2,2644.112
873.3,2606.674
873.4,2569.345
873.5,2532.12
873.6,2494.994
873.7,2457.961
873.8,2421.018
873.9,2384.158
874,2347.377
874.1,2310.671
874.2,2274.034
874.3,2237.461
874.4,2200.947
874.5,2164.489
874.6,2128.08
874.7,2091.716
874.8,2055.392
874.9,2019.103
875,1982.845
875.1,1946.613
875.2,1910.401
875.3,1874.205
875.4,1838.02
875.5,1801.842
875.6,1765.664
875.7,1729.483
875.8,1693.294
875.9,1657.09
876,1620.869
876.1,1584.623
876.2,1548.349
876.3,1512.041
876.4,1475.695
876.5,1439.305
876.6,1402.865
876.7,1366.371
876.8,1329.818
876.9,1293.199
877,1256.511
877.1,1219.746
877.2,1182.901
877.3,1145.968
877.4,1108.943
877.5,1071.821
877.6,1034.594
877.7,997.258
877.8,959.807
877.9,922.234
878,884.533
878.1,846.699
878.2,808.725
878.3,770.605
878.4,732.333
878.5,693.901
878.6,655.304
878.7,616.534
878.8,577.586
878.9,538.45
879,499.122
879.1,459.593
879.2,419.856
879.3,379.903
879.4,339.728
879.5,299.321
879.6,258.676
879.7,217.783
879.8,176.636
879.9,135.224
880,93.541
880.1,51.575
880.2,9.32
880.3,-33.235
880.4,-76.099
880.5,-119.282
880.6,-162.793
880.7,-206.644
880.8,-250.843
880.9,-295.403
881,-340.333
881.1,-385.646
881.2,-431.352
881.3,-477.464
881.4,-523.994
881.5,-570.954
881.6,-618.356
881.7,-666.215
881.8,-714.544
881.9,-763.357
882,-812.667
882.1,-862.491
882.2,-912.843
882.3,-963.738
882.4,-1015.193
882.5,-1067.225
882.6,-1119.85
882.7,-1173.087
882.8,-1226.954
882.9,-1281.469
883,-1336.653
883.1,-1392.524
883.2,-1449.105
883.3,-1506.415
883.4,-1564.479
883.5,-1623.318
883.6,-1682.957
883.7,-1743.42
883.8,-1804.732
883.9,-1866.921
884,-1930.012
884.1,-1994.036
884.2,-2059.021
884.3,-2124.998
884.4,-2191.999
884.5,-2260.057
884.6,-2329.205
884.7,-2399.48
884.8,-2470.918
884.9,-2543.559
885,-2617.442
885.1,-2692.609
885.2,-2769.103
885.3,-2846.971
885.4,-2926.259
885.5,-3007.016
885.6,-3089.294
885.7,-3173.148
885.8,-3258.633
885.9,-3345.807
886,-3434.733
886.1,-3525.475
886.2,-3618.101
886.3,-3712.68
886.4,-3809.287
886.5,-3908
886.6,-4008.899
886.7,-4112.072
886.8,-4217.607
886.9,-4325.6
887,-4436.15
887.1,-4549.361
887.2,-4665.345
887.3,-4784.218
887.4,-4906.104
887.5,-5031.131
887.6,-5159.437
887.7,-5291.168
887.8,-5426.477
887.9,-5565.528
888,-5708.493
888.1,-5855.556
888.2,-6006.911
888.3,-6162.766
888.4,-6323.341
888.5,-6488.872
888.6,-6659.608
888.7,-6835.819
888.8,-7017.79
888.9,-7205.827
889,-7400.258
889.1,-7601.436
889.2,-7809.738
889.3,-8025.57
889.4,-8249.372
889.5,-8481.615
889.6,-8722.809
889.7,-8973.506
889.8,-9234.303
889.9,-9505.85
890,-9788.851
890.1,-10084.073
890.2,-10392.356
890.3,-10714.614
890.4,-11051.85
890.5,-11405.166
890.6,-11775.773
890.7,-12165.007
890.8,-12574.344
890.9,-13005.42
891,-13460.055
891.1,-13940.274
891.2,-14448.345
891.3,-14986.807
891.4,-15558.52
891.5,-16166.713
891.6,-16815.046
891.7,-17507.686
891.8,-18249.397
891.9,-19045.647
892,-19902.753
892.1,-20828.042
892.2,-21830.066
892.3,-22918.869
892.4,-24106.329
892.5,-25406.591
892.6,-26836.64
892.7,-28417.052
892.8,-30172.99
892.9,-32135.564
893,-34343.697
893.1,-36846.739
893.2,-39708.21
893.3,-43011.282
893.4,-46867.017
893.5,-51427.12
893.6,-56904.408
893.7,-63607.031
893.8,-71998.581
893.9,-82810.25
894,-97266.48
894.1,-117585.255
894.2,-148242.277
894.3,-199824.259
894.4,-304863.827
894.5,-635879.066
894.6,8436804.902
894.7,557523.795
894.8,289598.926
894.9,196191.386
895,148676.978
895.1,119902.161
895.2,100605.815
895.3,86766.198
895.4,76354.896
895.5,68238.016
895.6,61732.05
895.7,56400.46
895.8,51951.371
895.9,48182.23
896,44948.07
896.1,42142.398
896.2,39685.231
896.3,37515.324
896.4,35584.992
896.5,33856.551
896.6,32299.826
896.7,30890.372
896.8,29608.175
896.9,28436.689
897,27362.118
897.1,26372.867
897.2,25459.123
897.3,24612.519
897.4,23825.881
897.5,23093.025
897.6,22408.586
897.7,21767.892
897.8,21166.852
897.9,20601.872
898,20069.778
898.1,19567.758
898.2,19093.313
898.3,18644.214
898.4,18218.463
898.5,17814.271
898.6,17430.025
898.7,17064.269
898.8,16715.685
898.9,16383.08
899,16065.367
899.1,15761.556
899.2,15470.742
899.3,15192.099
899.4,14924.869
899.5,14668.353
899.6,14421.913
899.7,14184.957
899.8,13956.939
899.9,13737.356
900,13525.74
900.1,13321.658
900.2,13124.708
900.3,12934.517
900.4,12750.735
900.5,12573.038
900.6,12401.124
900.7,12234.708
900.8,12073.526
900.9,11917.33
901,11765.887
901.1,11618.979
901.2,11476.4
901.3,11337.958
901.4,11203.471
901.5,11072.767
901.6,10945.686
901.7,10822.075
901.8,10701.791
901.9,10584.697
902,10470.665
902.1,10359.573
902.2,10251.306
902.3,10145.754
902.4,10042.813
902.5,9942.386
902.6,9844.378
902.7,9748.701
902.8,9655.269
902.9,9564.002
903,9474.824
903.1,9387.66
903.2,9302.443
903.3,9219.104
903.4,9137.58
903.5,9057.811
903.6,8979.739
903.7,8903.308
903.8,8828.465
903.9,8755.159
904,8683.342
904.1,8612.968
904.2,8543.99
904.3,8476.368
904.4,8410.059
904.5,8345.024
904.6,8281.226
904.7,8218.628
904.8,8157.195
904.9,8096.893
905,8037.691
905.1,7979.557
905.2,7922.461
905.3,7866.375
905.4,7811.271
905.5,7757.122
905.6,7703.903
905.7,7651.588
905.8,7600.154
905.9,7549.578
906,7499.837
906.1,7450.91
906.2,7402.776
906.3,7355.415
906.4,7308.808
906.5,7262.936
906.6,7217.781
906.7,7173.326
906.8,7129.553
906.9,7086.446
907,7043.989
907.1,7002.167
907.2,6960.965
907.3,6920.368
907.4,6880.364
907.5,6840.937
907.6,6802.075
907.7,6763.766
907.8,6725.997
907.9,6688.756
908,6652.031
908.1,6615.811
908.2,6580.086
908.3,6544.844
908.4,6510.075
908.5,6475.77
908.6,6441.919
908.7,6408.511
908.8,6375.538
908.9,6342.992
909,6310.862
909.1,6279.142
909.2,6247.822
909.3,6216.895
909.4,6186.353
909.5,6156.188
909.6,6126.393
909.7,6096.96
909.8,6067.884
909.9,6039.156
910,6010.77
910.1,5982.721
910.2,5955.001
910.3,5927.604
910.4,5900.525
910.5,5873.758
910.6,5847.296
910.7,5821.134
910.8,5795.268
910.9,5769.691
911,5744.399
911.1,5719.386
911.2,5694.648
911.3,5670.179
911.4,5645.975
911.5,5622.032
911.6,5598.345
911.7,5574.91
911.8,5551.722
911.9,5528.777
912,5506.072
912.1,5483.601
912.2,5461.362
912.3,5439.351
912.4,5417.563
912.5,5395.996
912.6,5374.645
912.7,5353.507
912.8,5332.579
912.9,5311.857
913,5291.339
913.1,5271.02
913.2,5250.898
913.3,5230.97
913.4,5211.233
913.5,5191.684
913.6,5172.32
913.7,5153.138
913.8,5134.136
913.9,5115.31
914,5096.658
914.1,5078.179
914.2,5059.868
914.3,5041.723
914.4,5023.743
914.5,5005.925
914.6,4988.266
914.7,4970.764
914.8,4953.417
914.9,4936.222
915,4919.178
915.1,4902.283
915.2,4885.534
915.3,4868.929
915.4,4852.467
915.5,4836.144
915.6,4819.961
915.7,4803.913
915.8,4788.001
915.9,4772.221
916,4756.573
916.1,4741.053
916.2,4725.662
916.3,4710.396
916.4,4695.254
916.5,4680.235
916.6,4665.337
916.7,4650.559
916.8,4635.899
916.9,4621.354
917,4606.925
917.1,4592.61
917.2,4578.406
917.3,4564.313
917.4,4550.329
917.5,4536.453
917.6,4522.683
917.7,4509.019
917.8,4495.458
917.9,4482.001
918,4468.644
918.1,4455.388
918.2,4442.23
918.3,4429.171
918.4,4416.207
918.5,4403.34
918.6,4390.566
918.7,4377.886
918.8,4365.298
918.9,4352.801
919,4340.393
919.1,4328.075
919.2,4315.844
919.3,4303.7
919.4,4291.643
919.5,4279.669
919.6,4267.78
919.7,4255.974
919.8,4244.25
919.9,4232.607
920,4221.044
920.1,4209.56
920.2,4198.155
920.3,4186.828
920.4,4175.577
920.5,4164.402
920.6,4153.302
920.7,4142.276
920.8,4131.323
920.9,4120.443
921,4109.636
921.1,4098.899
921.2,4088.232
921.3,4077.635
921.4,4067.107
921.5,4056.647
921.6,4046.255
921.7,4035.929
921.8,4025.669
921.9,4015.474
922,4005.344
922.1,3995.278
922.2,3985.276
922.3,3975.336
922.4,3965.458
922.5,3955.642
922.6,3945.886
922.7,3936.191
922.8,3926.555
922.9,3916.979
923,3907.46
923.1,3898
923.2,3888.597
923.3,3879.25
923.4,3869.96
923.5,3860.726
923.6,3851.546
923.7,3842.421
923.8,3833.35
923.9,3824.333
924,3815.368
924.1,3806.456
924.2,3797.596
924.3,3788.788
924.4,3780.03
924.5,3771.323
924.6,3762.666
924.7,3754.059
924.8,3745.501
924.9,3736.992
925,3728.531
925.1,3720.117
925.2,3711.751
925.3,3703.432
925.4,3695.16
925.5,3686.933
925.6,3678.752
925.7,3670.617
925.8,3662.526
925.9,3654.48
926,3646.478
926.1,3638.519
926.2,3630.604
926.3,3622.732
926.4,3614.902
926.5,3607.114
926.6,3599.368
926.7,3591.664
926.8,3584.001
926.9,3576.378
927,3568.796
927.1,3561.254
927.2,3553.751
927.3,3546.288
927.4,3538.864
927.5,3531.478
927.6,3524.131
927.7,3516.822
927.8,3509.55
927.9,3502.316
928,3495.119
928.1,3487.959
928.2,3480.835
928.3,3473.748
928.4,3466.696
928.5,3459.68
928.6,3452.699
928.7,3445.753
928.8,3438.842
928.9,3431.965
929,3425.123
929.1,3418.314
929.2,3411.539
929.3,3404.798
929.4,3398.089
929.5,3391.413
929.6,3384.77
929.7,3378.159
929.8,3371.581
929.9,3365.034
930,3358.518
930.1,3352.034
930.2,3345.581
930.3,3339.159
930.4,3332.767
930.5,3326.406
930.6,3320.074
930.7,3313.773
930.8,3307.502
930.9,3301.259
931,3295.046
931.1,3288.862
931.2,3282.707
931.3,3276.58
931.4,3270.482
931.5,3264.412
931.6,3258.37
931.7,3252.355
931.8,3246.368
931.9,3240.408
932,3234.476
932.1,3228.57
932.2,3222.691
932.3,3216.838
932.4,3211.012
932.5,3205.212
932.6,3199.438
932.7,3193.69
932.8,3187.967
932.9,3182.269
933,3176.597
933.1,3170.95
933.2,3165.328
933.3,3159.73
933.4,3154.157
933.5,3148.608
933.6,3143.083
933.7,3137.583
933.8,3132.106
933.9,3126.653
934,3121.223
934.1,3115.816
934.2,3110.433
934.3,3105.073
934.4,3099.735
934.5,3094.421
934.6,3089.129
934.7,3083.859
934.8,3078.611
934.9,3073.386
935,3068.182
935.1,3063
935.2,3057.84
935.3,3052.701
935.4,3047.584
935.5,3042.488
935.6,3037.413
935.7,3032.358
935.8,3027.325
935.9,3022.312
936,3017.32
936.1,3012.348
936.2,3007.396
936.3,3002.465
936.4,2997.553
936.5,2992.662
936.6,2987.79
936.7,2982.937
936.8,2978.104
936.9,2973.29
937,2968.496
937.1,2963.721
937.2,2958.964
937.3,2954.227
937.4,2949.508
937.5,2944.808
937.6,2940.126
937.7,2935.463
937.8,2930.818
937.9,2926.191
938,2921.582
938.1,2916.991
938.2,2912.417
938.3,2907.862
938.4,2903.324
938.5,2898.803
938.6,2894.3
938.7,2889.814
938.8,2885.346
938.9,2880.894
939,2876.459
939.1,2872.042
939.2,2867.64
939.3,2863.256
939.4,2858.888
939.5,2854.536
939.6,2850.201
939.7,2845.882
939.8,2841.579
939.9,2837.293
940,2833.022
940.1,2828.767
940.2,2824.527
940.3,2820.304
940.4,2816.096
940.5,2811.903
940.6,2807.726
940.7,2803.564
940.8,2799.418
940.9,2795.286
941,2791.17
941.1,2787.068
941.2,2782.982
941.3,2778.91
941.4,2774.852
941.5,2770.81
941.6,2766.782
941.7,2762.768
941.8,2758.769
941.9,2754.784
942,2750.813
942.1,2746.856
942.2,2742.913
942.3,2738.984
942.4,2735.069
942.5,2731.168
942.6,2727.281
942.7,2723.407
942.8,2719.547
942.9,2715.7
943,2711.867
943.1,2708.047
943.2,2704.24
943.3,2700.446
943.4,2696.666
943.5,2692.898
943.6,2689.144
943.7,2685.402
943.8,2681.674
943.9,2677.958
944,2674.254
944.1,2670.564
944.2,2666.885
944.3,2663.22
944.4,2659.566
944.5,2655.926
944.6,2652.297
944.7,2648.681
944.8,2645.076
944.9,2641.484
945,2637.904
945.1,2634.336
945.2,2630.779
945.3,2627.235
945.4,2623.702
945.5,2620.181
945.6,2616.672
945.7,2613.174
945.8,2609.688
945.9,2606.213
946,2602.749
946.1,2599.297
946.2,2595.856
946.3,2592.427
946.4,2589.008
946.5,2585.601
946.6,2582.205
946.7,2578.819
946.8,2575.445
946.9,2572.081
947,2568.729
947.1,2565.387
947.2,2562.055
947.3,2558.735
947.4,2555.425
947.5,2552.126
947.6,2548.837
947.7,2545.558
947.8,2542.29
947.9,2539.032
948,2535.785
948.1,2532.548
948.2,2529.321
948.3,2526.104
948.4,2522.897
948.5,2519.7
948.6,2516.513
948.7,2513.336
948.8,2510.169
948.9,2507.012
949,2503.865
949.1,2500.727
949.2,2497.599
949.3,2494.481
949.4,2491.372
949.5,2488.273
949.6,2485.183
949.7,2482.103
949.8,2479.032
949.9,2475.97
950,2472.918
950.1,2469.875
950.2,2466.842
950.3,2463.817
950.4,2460.802
950.5,2457.795
950.6,2454.798
950.7,2451.81
950.8,2448.831
950.9,2445.86
951,2442.899
951.1,2439.946
951.2,2437.003
951.3,2434.068
951.4,2431.141
951.5,2428.224
951.6,2425.315
951.7,2422.414
951.8,2419.522
951.9,2416.639
952,2413.764
952.1,2410.897
952.2,2408.039
952.3,2405.19
952.4,2402.348
952.5,2399.515
952.6,2396.69
952.7,2393.874
952.8,2391.065
952.9,2388.265
953,2385.472
953.1,2382.688
953.2,2379.912
953.3,2377.143
953.4,2374.383
953.5,2371.631
953.6,2368.886
953.7,2366.149
953.8,2363.42
953.9,2360.699
954,2357.986
954.1,2355.28
954.2,2352.582
954.3,2349.892
954.4,2347.209
954.5,2344.533
954.6,2341.866
954.7,2339.205
954.8,2336.552
954.9,2333.907
955,2331.269
955.1,2328.638
955.2,2326.015
955.3,2323.399
955.4,2320.79
955.5,2318.189
955.6,2315.594
955.7,2313.007
955.8,2310.427
955.9,2307.854
956,2305.288
956.1,2302.729
956.2,2300.178
956.3,2297.633
956.4,2295.095
956.5,2292.564
956.6,2290.04
956.7,2287.523
956.8,2285.012
956.9,2282.509
957,2280.012
957.1,2277.522
957.2,2275.038
957.3,2272.562
957.4,2270.092
957.5,2267.628
957.6,2265.172
957.7,2262.722
957.8,2260.278
957.9,2257.841
958,2255.41
958.1,2252.986
958.2,2250.568
958.3,2248.157
958.4,2245.752
958.5,2243.354
958.6,2240.961
958.7,2238.576
958.8,2236.196
958.9,2233.823
959,2231.455
959.1,2229.095
959.2,2226.74
959.3,2224.391
959.4,2222.049
959.5,2219.712
959.6,2217.382
959.7,2215.058
959.8,2212.739
959.9,2210.427
960,2208.121
960.1,2205.821
960.2,2203.526
960.3,2201.238
960.4,2198.955
960.5,2196.679
960.6,2194.408
960.7,2192.143
960.8,2189.883
960.9,2187.63
961,2185.382
961.1,2183.14
961.2,2180.903
961.3,2178.673
961.4,2176.448
961.5,2174.228
961.6,2172.014
961.7,2169.806
961.8,2167.604
961.9,2165.406
962,2163.215
962.1,2161.029
962.2,2158.848
962.3,2156.673
962.4,2154.503
962.5,2152.339
962.6,2150.18
962.7,2148.026
962.8,2145.878
962.9,2143.735
963,2141.597
963.1,2139.465
963.2,2137.338
963.3,2135.216
963.4,2133.099
963.5,2130.988
963.6,2128.881
963.7,2126.78
963.8,2124.684
963.9,2122.594
964,2120.508
964.1,2118.427
964.2,2116.352
964.3,2114.281
964.4,2112.216
964.5,2110.155
964.6,2108.1
964.7,2106.049
964.8,2104.003
964.9,2101.963
965,2099.927
965.1,2097.896
965.2,2095.87
965.3,2093.849
965.4,2091.833
965.5,2089.821
965.6,2087.815
965.7,2085.813
965.8,2083.816
965.9,2081.823
966,2079.836
966.1,2077.853
966.2,2075.875
966.3,2073.901
966.4,2071.932
966.5,2069.968
966.6,2068.008
966.7,2066.053
966.8,2064.103
966.9,2062.157
967,2060.216
967.1,2058.279
967.2,2056.347
967.3,2054.419
967.4,2052.496
967.5,2050.577
967.6,2048.663
967.7,2046.753
967.8,2044.848
967.9,2042.947
968,2041.05
968.1,2039.158
968.2,2037.27
968.3,2035.387
968.4,2033.508
968.5,2031.633
968.6,2029.762
968.7,2027.896
968.8,2026.034
968.9,2024.176
969,2022.323
969.1,2020.474
969.2,2018.629
969.3,2016.788
969.4,2014.951
969.5,2013.119
969.6,2011.29
969.7,2009.466
969.8,2007.646
969.9,2005.83
970,2004.018
970.1,2002.21
970.2,2000.407
970.3,1998.607
970.4,1996.811
970.5,1995.02
970.6,1993.232
970.7,1991.449
970.8,1989.669
970.9,1987.893
971,1986.121
971.1,1984.354
971.2,1982.59
971.3,1980.83
971.4,1979.074
971.5,1977.322
971.6,1975.573
971.7,1973.829
971.8,1972.088
971.9,1970.351
972,1968.619
972.1,1966.889
972.2,1965.164
972.3,1963.442
972.4,1961.725
972.5,1960.011
972.6,1958.3
972.7,1956.594
972.8,1954.891
972.9,1953.192
973,1951.496
973.1,1949.804
973.2,1948.116
973.3,1946.432
973.4,1944.751
973.5,1943.074
973.6,1941.4
973.7,1939.73
973.8,1938.064
973.9,1936.401
974,1934.742
974.1,1933.086
974.2,1931.434
974.3,1929.785
974.4,1928.14
974.5,1926.498
974.6,1924.86
974.7,1923.226
974.8,1921.595
974.9,1919.967
975,1918.343
975.1,1916.722
975.2,1915.105
975.3,1913.491
975.4,1911.88
975.5,1910.273
975.6,1908.669
975.7,1907.069
975.8,1905.472
975.9,1903.878
976,1902.288
976.1,1900.701
976.2,1899.117
976.3,1897.537
976.4,1895.96
976.5,1894.386
976.6,1892.815
976.7,1891.248
976.8,1889.684
976.9,1888.123
977,1886.566
977.1,1885.011
977.2,1883.46
977.3,1881.912
977.4,1880.368
977.5,1878.826
977.6,1877.288
977.7,1875.753
977.8,1874.221
977.9,1872.692
978,1871.166
978.1,1869.643
978.2,1868.124
978.3,1866.608
978.4,1865.094
978.5,1863.584
978.6,1862.077
978.7,1860.573
978.8,1859.072
978.9,1857.574
979,1856.079
979.1,1854.587
979.2,1853.098
979.3,1851.612
979.4,1850.129
979.5,1848.649
979.6,1847.172
979.7,1845.698
979.8,1844.227
979.9,1842.759
980,1841.293
980.1,1839.831
980.2,1838.372
980.3,1836.916
980.4,1835.462
980.5,1834.011
980.6,1832.564
980.7,1831.119
980.8,1829.677
980.9,1828.238
981,1826.802
981.1,1825.368
981.2,1823.938
981.3,1822.51
981.4,1821.085
981.5,1819.663
981.6,1818.243
981.7,1816.827
981.8,1815.413
981.9,1814.002
982,1812.594
982.1,1811.188
982.2,1809.786
982.3,1808.386
982.4,1806.988
982.5,1805.594
982.6,1804.202
982.7,1802.813
982.8,1801.427
982.9,1800.043
983,1798.662
983.1,1797.283
983.2,1795.908
983.3,1794.535
983.4,1793.164
983.5,1791.797
983.6,1790.431
983.7,1789.069
983.8,1787.709
983.9,1786.352
984,1784.997
984.1,1783.645
984.2,1782.296
984.3,1780.949
984.4,1779.604
984.5,1778.263
984.6,1776.924
984.7,1775.587
984.8,1774.253
984.9,1772.921
985,1771.592
985.1,1770.266
985.2,1768.942
985.3,1767.62
985.4,1766.301
985.5,1764.985
985.6,1763.671
985.7,1762.359
985.8,1761.05
985.9,1759.743
986,1758.439
986.1,1757.138
986.2,1755.838
986.3,1754.541
986.4,1753.247
986.5,1751.955
986.6,1750.666
986.7,1749.378
986.8,1748.094
986.9,1746.811
987,1745.531
987.1,1744.254
987.2,1742.978
987.3,1741.705
987.4,1740.435
987.5,1739.167
987.6,1737.901
987.7,1736.637
987.8,1735.376
987.9,1734.117
988,1732.861
988.1,1731.607
988.2,1730.355
988.3,1729.105
988.4,1727.858
988.5,1726.613
988.6,1725.37
988.7,1724.13
988.8,1722.891
988.9,1721.655
989,1720.422
989.1,1719.19
989.2,1717.961
989.3,1716.734
989.4,1715.509
989.5,1714.287
989.6,1713.067
989.7,1711.848
989.8,1710.633
989.9,1709.419
990,1708.207
990.1,1706.998
990.2,1705.791
990.3,1704.586
990.4,1703.383
990.5,1702.182
990.6,1700.984
990.7,1699.788
990.8,1698.593
990.9,1697.401
991,1696.211
991.1,1695.024
991.2,1693.838
991.3,1692.654
991.4,1691.473
991.5,1690.293
991.6,1689.116
991.7,1687.941
991.8,1686.768
991.9,1685.597
992,1684.428
992.1,1683.261
992.2,1682.096
992.3,1680.933
992.4,1679.773
992.5,1678.614
992.6,1677.457
992.7,1676.303
992.8,1675.15
992.9,1674
993,1672.851
993.1,1671.705
993.2,1670.56
993.3,1669.418
993.4,1668.277
993.5,1667.139
993.6,1666.002
993.7,1664.868
993.8,1663.735
993.9,1662.604
994,1661.476
994.1,1660.349
994.2,1659.224
994.3,1658.102
994.4,1656.981
994.5,1655.862
994.6,1654.745
994.7,1653.63
994.8,1652.517
994.9,1651.405
995,1650.296
995.1,1649.189
995.2,1648.083
995.3,1646.98
995.4,1645.878
995.5,1644.778
995.6,1643.68
995.7,1642.584
995.8,1641.49
995.9,1640.398
996,1639.307
996.1,1638.219
996.2,1637.132
996.3,1636.047
996.4,1634.964
996.5,1633.883
996.6,1632.804
996.7,1631.726
996.8,1630.65
996.9,1629.576
997,1628.504
997.1,1627.434
997.2,1626.366
997.3,1625.299
997.4,1624.234
997.5,1623.171
997.6,1622.11
997.7,1621.05
997.8,1619.993
997.9,1618.937
998,1617.882
998.1,1616.83
998.2,1615.779
998.3,1614.73
998.4,1613.683
998.5,1612.638
998.6,1611.594
998.7,1610.552
998.8,1609.512
998.9,1608.474
999,1607.437
999.1,1606.402
999.2,1605.368
999.3,1604.337
999.4,1603.307
999.5,1602.279
999.6,1601.252
999.7,1600.227
999.8,1599.204
999.9,1598.183
1000,1597.163
1000.1,1596.145
1000.2,1595.129
1000.3,1594.114
1000.4,1593.101
1000.5,1592.089
1000.6,1591.08
1000.7,1590.071
1000.8,1589.065
1000.9,1588.06
1001,1587.057
1001.1,1586.055
1001.2,1585.056
1001.3,1584.057
1001.4,1583.061
1001.5,1582.066
1001.6,1581.072
1001.7,1580.08
1001.8,1579.09
1001.9,1578.101
1002,1577.114
1002.1,1576.129
1002.2,1575.145
1002.3,1574.163
1002.4,1573.182
1002.5,1572.203
1002.6,1571.226
1002.7,1570.25
1002.8,1569.275
1002.9,1568.303
1003,1567.331
1003.1,1566.362
1003.2,1565.393
1003.3,1564.427
1003.4,1563.462
1003.5,1562.498
1003.6,1561.536
1003.7,1560.576
1003.8,1559.617
1003.9,1558.66
1004,1557.704
1004.1,1556.749
1004.2,1555.796
1004.3,1554.845
1004.4,1553.895
1004.5,1552.947
1004.6,1552
1004.7,1551.055
1004.8,1550.111
1004.9,1549.169
1005,1548.228
1005.1,1547.288
1005.2,1546.351
1005.3,1545.414
1005.4,1544.479
1005.5,1543.546
1005.6,1542.614
1005.7,1541.683
1005.8,1540.754
1005.9,1539.826
1006,1538.9
1006.1,1537.975
1006.2,1537.052
1006.3,1536.13
1006.4,1535.21
1006.5,1534.291
1006.6,1533.373
1006.7,1532.457
1006.8,1531.542
1006.9,1530.629
1007,1529.717
1007.1,1528.807
1007.2,1527.898
1007.3,1526.99
1007.4,1526.084
1007.5,1525.179
1007.6,1524.275
1007.7,1523.373
1007.8,1522.473
1007.9,1521.573
1008,1520.675
1008.1,1519.779
1008.2,1518.884
1008.3,1517.99
1008.4,1517.098
1008.5,1516.206
1008.6,1515.317
1008.7,1514.428
1008.8,1513.541
1008.9,1512.656
1009,1511.772
1009.1,1510.889
1009.2,1510.007
1009.3,1509.127
1009.4,1508.248
1009.5,1507.37
1009.6,1506.494
1009.7,1505.619
1009.8,1504.746
1009.9,1503.873
1010,1503.002
1010.1,1502.133
1010.2,1501.265
1010.3,1500.398
1010.4,1499.532
1010.5,1498.668
1010.6,1497.804
1010.7,1496.943
1010.8,1496.082
1010.9,1495.223
1011,1494.365
1011.1,1493.508
1011.2,1492.653
1011.3,1491.799
1011.4,1490.946
1011.5,1490.095
1011.6,1489.245
1011.7,1488.396
1011.8,1487.548
1011.9,1486.701
1012,1485.856
1012.1,1485.012
1012.2,1484.17
1012.3,1483.328
1012.4,1482.488
1012.5,1481.649
1012.6,1480.812
1012.7,1479.975
1012.8,1479.14
1012.9,1478.306
1013,1477.473
1013.1,1476.642
1013.2,1475.811
1013.3,1474.982
1013.4,1474.155
1013.5,1473.328
1013.6,1472.503
1013.7,1471.678
1013.8,1470.855
1013.9,1470.034
1014,1469.213
1014.1,1468.394
1014.2,1467.576
1014.3,1466.759
1014.4,1465.943
1014.5,1465.128
1014.6,1464.315
1014.7,1463.503
1014.8,1462.692
1014.9,1461.882
1015,1461.073
1015.1,1460.266
1015.2,1459.459
1015.3,1458.654
1015.4,1457.85
1015.5,1457.048
1015.6,1456.246
1015.7,1455.445
1015.8,1454.646
1015.9,1453.848
1016,1453.051
1016.1,1452.255
1016.2,1451.46
1016.3,1450.667
1016.4,1449.874
1016.5,1449.083
1016.6,1448.293
1016.7,1447.504
1016.8,1446.716
1016.9,1445.929
1017,1445.144
1017.1,1444.359
1017.2,1443.576
1017.3,1442.793
1017.4,1442.012
1017.5,1441.232
1017.6,1440.453
1017.7,1439.675
1017.8,1438.899
1017.9,1438.123
1018,1437.349
1018.1,1436.575
1018.2,1435.803
1018.3,1435.032
1018.4,1434.262
1018.5,1433.493
1018.6,1432.725
1018.7,1431.958
1018.8,1431.192
1018.9,1430.427
1019,1429.664
1019.1,1428.901
1019.2,1428.14
1019.3,1427.38
1019.4,1426.62
1019.5,1425.862
1019.6,1425.105
1019.7,1424.349
1019.8,1423.594
1019.9,1422.84
1020,1422.087
1020.1,1421.335
1020.2,1420.584
1020.3,1419.834
1020.4,1419.086
1020.5,1418.338
1020.6,1417.591
1020.7,1416.846
1020.8,1416.101
1020.9,1415.358
1021,1414.615
1021.1,1413.874
1021.2,1413.133
1021.3,1412.394
1021.4,1411.656
1021.5,1410.918
1021.6,1410.182
1021.7,1409.447
1021.8,1408.712
1021.9,1407.979
1022,1407.247
1022.1,1406.515
1022.2,1405.785
1022.3,1405.056
1022.4,1404.328
1022.5,1403.601
1022.6,1402.874
1022.7,1402.149
1022.8,1401.425
1022.9,1400.702
1023,1399.979
1023.1,1399.258
1023.2,1398.538
1023.3,1397.819
1023.4,1397.1
1023.5,1396.383
1023.6,1395.667
1023.7,1394.951
1023.8,1394.237
1023.9,1393.523
1024,1392.811
1024.1,1392.099
1024.2,1391.389
1024.3,1390.679
1024.4,1389.971
1024.5,1389.263
1024.6,1388.557
1024.7,1387.851
1024.8,1387.146
1024.9,1386.442
1025,1385.739
1025.1,1385.038
1025.2,1384.337
1025.3,1383.637
1025.4,1382.938
1025.5,1382.239
1025.6,1381.542
1025.7,1380.846
1025.8,1380.151
1025.9,1379.456
1026,1378.763
1026.1,1378.07
1026.2,1377.379
1026.3,1376.688
1026.4,1375.998
1026.5,1375.31
1026.6,1374.622
1026.7,1373.935
1026.8,1373.249
1026.9,1372.564
1027,1371.879
1027.1,1371.196
1027.2,1370.514
1027.3,1369.832
1027.4,1369.152
1027.5,1368.472
1027.6,1367.793
1027.7,1367.115
1027.8,1366.438
1027.9,1365.762
1028,1365.087
1028.1,1364.413
1028.2,1363.739
1028.3,1363.067
1028.4,1362.395
1028.5,1361.725
1028.6,1361.055
1028.7,1360.386
1028.8,1359.718
1028.9,1359.05
1029,1358.384
1029.1,1357.719
1029.2,1357.054
1029.3,1356.39
1029.4,1355.727
1029.5,1355.065
1029.6,1354.404
1029.7,1353.744
1029.8,1353.085
1029.9,1352.426
1030,1351.769
1030.1,1351.112
1030.2,1350.456
1030.3,1349.801
1030.4,1349.147
1030.5,1348.493
1030.6,1347.841
1030.7,1347.189
1030.8,1346.538
1030.9,1345.888
1031,1345.239
1031.1,1344.591
1031.2,1343.943
1031.3,1343.297
1031.4,1342.651
1031.5,1342.006
1031.6,1341.362
1031.7,1340.718
1031.8,1340.076
1031.9,1339.434
1032,1338.793
1032.1,1338.153
1032.2,1337.514
1032.3,1336.876
1032.4,1336.238
1032.5,1335.602
1032.6,1334.966
1032.7,1334.331
1032.8,1333.697
1032.9,1333.063
1033,1332.43
1033.1,1331.799
1033.2,1331.168
1033.3,1330.537
1033.4,1329.908
1033.5,1329.279
1033.6,1328.652
1033.7,1328.025
1033.8,1327.398
1033.9,1326.773
1034,1326.148
1034.1,1325.525
1034.2,1324.902
1034.3,1324.279
1034.4,1323.658
1034.5,1323.037
1034.6,1322.417
1034.7,1321.798
1034.8,1321.18
1034.9,1320.563
1035,1319.946
1035.1,1319.33
1035.2,1318.715
1035.3,1318.1
1035.4,1317.487
1035.5,1316.874
1035.6,1316.262
1035.7,1315.65
1035.8,1315.04
1035.9,1314.43
1036,1313.821
1036.1,1313.213
1036.2,1312.605
1036.3,1311.998
1036.4,1311.393
1036.5,1310.787
1036.6,1310.183
1036.7,1309.579
1036.8,1308.976
1036.9,1308.374
1037,1307.773
1037.1,1307.172
1037.2,1306.572
1037.3,1305.973
1037.4,1305.374
1037.5,1304.777
1037.6,1304.18
1037.7,1303.583
1037.8,1302.988
1037.9,1302.393
1038,1301.799
1038.1,1301.206
1038.2,1300.613
1038.3,1300.021
1038.4,1299.43
1038.5,1298.84
1038.6,1298.25
1038.7,1297.661
1038.8,1297.073
1038.9,1296.486
1039,1295.899
1039.1,1295.313
1039.2,1294.728
1039.3,1294.143
1039.4,1293.559
1039.5,1292.976
1039.6,1292.394
1039.7,1291.812
1039.8,1291.231
1039.9,1290.651
1040,1290.071
1040.1,1289.493
1040.2,1288.914
1040.3,1288.337
1040.4,1287.76
1040.5,1287.184
1040.6,1286.609
1040.7,1286.034
1040.8,1285.46
1040.9,1284.887
1041,1284.315
1041.1,1283.743
1041.2,1283.172
1041.3,1282.601
1041.4,1282.031
1041.5,1281.462
1041.6,1280.894
1041.7,1280.326
1041.8,1279.759
1041.9,1279.193
1042,1278.627
1042.1,1278.062
1042.2,1277.498
1042.3,1276.934
1042.4,1276.372
1042.5,1275.809
1042.6,1275.248
1042.7,1274.687
1042.8,1274.127
1042.9,1273.567
1043,1273.008
1043.1,1272.45
1043.2,1271.893
1043.3,1271.336
1043.4,1270.78
1043.5,1270.224
1043.6,1269.669
1043.7,1269.115
1043.8,1268.561
1043.9,1268.009
1044,1267.456
1044.1,1266.905
1044.2,1266.354
1044.3,1265.804
1044.4,1265.254
1044.5,1264.705
1044.6,1264.157
1044.7,1263.609
1044.8,1263.062
1044.9,1262.516
1045,1261.97
1045.1,1261.425
1045.2,1260.881
1045.3,1260.337
1045.4,1259.794
1045.5,1259.252
1045.6,1258.71
1045.7,1258.169
1045.8,1257.628
1045.9,1257.088
1046,1256.549
1046.1,1256.01
1046.2,1255.472
1046.3,1254.935
1046.4,1254.398
1046.5,1253.862
1046.6,1253.327
1046.7,1252.792
1046.8,1252.258
1046.9,1251.724
1047,1251.191
1047.1,1250.659
1047.2,1250.127
1047.3,1249.596
1047.4,1249.066
1047.5,1248.536
1047.6,1248.006
1047.7,1247.478
1047.8,1246.95
1047.9,1246.422
1048,1245.896
1048.1,1245.37
1048.2,1244.844
1048.3,1244.319
1048.4,1243.795
1048.5,1243.271
1048.6,1242.748
1048.7,1242.225
1048.8,1241.704
1048.9,1241.182
1049,1240.662
1049.1,1240.142
1049.2,1239.622
1049.3,1239.103
1049.4,1238.585
1049.5,1238.067
1049.6,1237.55
1049.7,1237.034
1049.8,1236.518
1049.9,1236.003
1050,1235.488
1050.1,1234.974
1050.2,1234.46
1050.3,1233.947
1050.4,1233.435
1050.5,1232.923
1050.6,1232.412
1050.7,1231.901
1050.8,1231.391
1050.9,1230.882
1051,1230.373
1051.1,1229.865
1051.2,1229.357
1051.3,1228.85
1051.4,1228.344
1051.5,1227.838
1051.6,1227.332
1051.7,1226.828
1051.8,1226.324
1051.9,1225.82
1052,1225.317
1052.1,1224.814
1052.2,1224.312
1052.3,1223.811
1052.4,1223.31
1052.5,1222.81
1052.6,1222.311
1052.7,1221.811
1052.8,1221.313
1052.9,1220.815
1053,1220.318
1053.1,1219.821
1053.2,1219.325
1053.3,1218.829
1053.4,1218.334
1053.5,1217.839
1053.6,1217.345
1053.7,1216.852
1053.8,1216.359
1053.9,1215.866
1054,1215.375
1054.1,1214.883
1054.2,1214.393
1054.3,1213.903
1054.4,1213.413
1054.5,1212.924
1054.6,1212.436
1054.7,1211.948
1054.8,1211.46
1054.9,1210.973
1055,1210.487
1055.1,1210.001
1055.2,1209.516
1055.3,1209.031
1055.4,1208.547
1055.5,1208.064
1055.6,1207.581
1055.7,1207.098
1055.8,1206.616
1055.9,1206.135
1056,1205.654
1056.1,1205.173
1056.2,1204.694
1056.3,1204.214
1056.4,1203.735
1056.5,1203.257
1056.6,1202.779
1056.7,1202.302
1056.8,1201.826
1056.9,1201.349
1057,1200.874
1057.1,1200.399
1057.2,1199.924
1057.3,1199.45
1057.4,1198.977
1057.5,1198.504
1057.6,1198.031
1057.7,1197.559
1057.8,1197.088
1057.9,1196.617
1058,1196.147
1058.1,1195.677
1058.2,1195.207
1058.3,1194.739
1058.4,1194.27
1058.5,1193.802
1058.6,1193.335
1058.7,1192.868
1058.8,1192.402
1058.9,1191.936
1059,1191.471
1059.1,1191.006
1059.2,1190.542
1059.3,1190.078
1059.4,1189.615
1059.5,1189.152
1059.6,1188.69
1059.7,1188.228
1059.8,1187.767
1059.9,1187.306
1060,1186.846
1060.1,1186.387
1060.2,1185.927
1060.3,1185.469
1060.4,1185.01
1060.5,1184.553
1060.6,1184.095
1060.7,1183.639
1060.8,1183.182
1060.9,1182.727
1061,1182.272
1061.1,1181.817
1061.2,1181.362
1061.3,1180.909
1061.4,1180.455
1061.5,1180.003
1061.6,1179.55
1061.7,1179.099
1061.8,1178.647
1061.9,1178.196
1062,1177.746
1062.1,1177.296
1062.2,1176.847
1062.3,1176.398
1062.4,1175.949
1062.5,1175.501
1062.6,1175.054
1062.7,1174.607
1062.8,1174.16
1062.9,1173.714
1063,1173.269
1063.1,1172.824
1063.2,1172.379
1063.3,1171.935
1063.4,1171.491
1063.5,1171.048
1063.6,1170.606
1063.7,1170.163
1063.8,1169.722
1063.9,1169.28
1064,1168.839
1064.1,1168.399
1064.2,1167.959
1064.3,1167.52
1064.4,1167.081
1064.5,1166.642
1064.6,1166.204
1064.7,1165.767
1064.8,1165.33
1064.9,1164.893
1065,1164.457
1065.1,1164.021
1065.2,1163.586
1065.3,1163.151
1065.4,1162.717
1065.5,1162.283
1065.6,1161.849
1065.7,1161.417
1065.8,1160.984
1065.9,1160.552
1066,1160.12
1066.1,1159.689
1066.2,1159.259
1066.3,1158.828
1066.4,1158.399
1066.5,1157.969
1066.6,1157.54
1066.7,1157.112
1066.8,1156.684
1066.9,1156.256
1067,1155.829
1067.1,1155.403
1067.2,1154.977
1067.3,1154.551
1067.4,1154.125
1067.5,1153.701
1067.6,1153.276
1067.7,1152.852
1067.8,1152.429
1067.9,1152.006
1068,1151.583
1068.1,1151.161
1068.2,1150.739
1068.3,1150.318
1068.4,1149.897
1068.5,1149.476
1068.6,1149.056
1068.7,1148.637
1068.8,1148.218
1068.9,1147.799
1069,1147.381
1069.1,1146.963
1069.2,1146.545
1069.3,1146.128
1069.4,1145.712
1069.5,1145.296
1069.6,1144.88
1069.7,1144.465
1069.8,1144.05
1069.9,1143.636
1070,1143.222
1070.1,1142.808
1070.2,1142.395
1070.3,1141.982
1070.4,1141.57
1070.5,1141.158
1070.6,1140.747
1070.7,1140.336
1070.8,1139.925
1070.9,1139.515
1071,1139.105
1071.1,1138.696
1071.2,1138.287
1071.3,1137.879
1071.4,1137.471
1071.5,1137.063
1071.6,1136.656
1071.7,1136.249
1071.8,1135.842
1071.9,1135.436
1072,1135.031
1072.1,1134.626
1072.2,1134.221
1072.3,1133.817
1072.4,1133.413
1072.5,1133.009
1072.6,1132.606
1072.7,1132.203
1072.8,1131.801
1072.9,1131.399
1073,1130.998
1073.1,1130.597
1073.2,1130.196
1073.3,1129.796
1073.4,1129.396
1073.5,1128.997
1073.6,1128.598
1073.7,1128.199
1073.8,1127.801
1073.9,1127.403
1074,1127.006
1074.1,1126.609
1074.2,1126.212
1074.3,1125.816
1074.4,1125.42
1074.5,1125.024
1074.6,1124.629
1074.7,1124.235
1074.8,1123.841
1074.9,1123.447
1075,1123.053
1075.1,1122.66
1075.2,1122.268
1075.3,1121.875
1075.4,1121.484
1075.5,1121.092
1075.6,1120.701
1075.7,1120.31
1075.8,1119.92
1075.9,1119.53
1076,1119.141
1076.1,1118.752
1076.2,1118.363
1076.3,1117.974
1076.4,1117.587
1076.5,1117.199
1076.6,1116.812
1076.7,1116.425
1076.8,1116.039
1076.9,1115.653
1077,1115.267
1077.1,1114.882
1077.2,1114.497
1077.3,1114.112
1077.4,1113.728
1077.5,1113.344
1077.6,1112.961
1077.7,1112.578
1077.8,1112.195
1077.9,1111.813
1078,1111.431
1078.1,1111.05
1078.2,1110.669
1078.3,1110.288
1078.4,1109.908
1078.5,1109.528
1078.6,1109.148
1078.7,1108.769
1078.8,1108.39
1078.9,1108.012
1079,1107.634
1079.1,1107.256
1079.2,1106.879
1079.3,1106.502
1079.4,1106.125
1079.5,1105.749
1079.6,1105.373
1079.7,1104.998
1079.8,1104.622
1079.9,1104.248
1080,1103.873
1080.1,1103.499
1080.2,1103.126
1080.3,1102.752
1080.4,1102.379
1080.5,1102.007
1080.6,1101.635
1080.7,1101.263
1080.8,1100.891
1080.9,1100.52
1081,1100.15
1081.1,1099.779
1081.2,1099.409
1081.3,1099.039
1081.4,1098.67
1081.5,1098.301
1081.6,1097.933
1081.7,1097.564
1081.8,1097.197
1081.9,1096.829
1082,1096.462
1082.1,1096.095
1082.2,1095.729
1082.3,1095.363
1082.4,1094.997
1082.5,1094.631
1082.6,1094.266
1082.7,1093.902
1082.8,1093.537
1082.9,1093.173
1083,1092.81
1083.1,1092.447
1083.2,1092.084
1083.3,1091.721
1083.4,1091.359
1083.5,1090.997
1083.6,1090.635
1083.7,1090.274
1083.8,1089.914
1083.9,1089.553
1084,1089.193
1084.1,1088.833
1084.2,1088.474
1084.3,1088.115
1084.4,1087.756
1084.5,1087.397
1084.6,1087.039
1084.7,1086.682
1084.8,1086.324
1084.9,1085.967
1085,1085.611
1085.1,1085.254
1085.2,1084.898
1085.3,1084.543
1085.4,1084.187
1085.5,1083.832
1085.6,1083.478
1085.7,1083.123
1085.8,1082.769
1085.9,1082.416
1086,1082.062
1086.1,1081.709
1086.2,1081.357
1086.3,1081.004
1086.4,1080.652
1086.5,1080.301
1086.6,1079.95
1086.7,1079.599
1086.8,1079.248
1086.9,1078.898
1087,1078.548
1087.1,1078.198
1087.2,1077.849
1087.3,1077.5
1087.4,1077.151
1087.5,1076.803
1087.6,1076.455
1087.7,1076.107
1087.8,1075.76
1087.9,1075.413
1088,1075.066
1088.1,1074.72
1088.2,1074.374
1088.3,1074.028
1088.4,1073.683
1088.5,1073.338
1088.6,1072.993
1088.7,1072.649
1088.8,1072.305
1088.9,1071.961
1089,1071.617
1089.1,1071.274
1089.2,1070.931
1089.3,1070.589
1089.4,1070.247
1089.5,1069.905
1089.6,1069.564
1089.7,1069.222
1089.8,1068.881
1089.9,1068.541
1090,1068.201
1090.1,1067.861
1090.2,1067.521
1090.3,1067.182
1090.4,1066.843
1090.5,1066.504
1090.6,1066.166
1090.7,1065.828
1090.8,1065.49
1090.9,1065.153
1091,1064.816
1091.1,1064.479
1091.2,1064.143
1091.3,1063.807
1091.4,1063.471
1091.5,1063.135
1091.6,1062.8
1091.7,1062.465
1091.8,1062.131
1091.9,1061.796
1092,1061.462
1092.1,1061.129
1092.2,1060.795
1092.3,1060.462
1092.4,1060.13
1092.5,1059.797
1092.6,1059.465
1092.7,1059.133
1092.8,1058.802
1092.9,1058.471
1093,1058.14
1093.1,1057.809
1093.2,1057.479
1093.3,1057.149
1093.4,1056.819
1093.5,1056.49
1093.6,1056.161
1093.7,1055.832
1093.8,1055.504
1093.9,1055.175
1094,1054.848
1094.1,1054.52
1094.2,1054.193
1094.3,1053.866
1094.4,1053.539
1094.5,1053.213
1094.6,1052.887
1094.7,1052.561
1094.8,1052.235
1094.9,1051.91
1095,1051.585
1095.1,1051.261
1095.2,1050.937
1095.3,1050.613
1095.4,1050.289
1095.5,1049.966
1095.6,1049.642
1095.7,1049.32
1095.8,1048.997
1095.9,1048.675
1096,1048.353
1096.1,1048.031
1096.2,1047.71
1096.3,1047.389
1096.4,1047.068
1096.5,1046.748
1096.6,1046.428
1096.7,1046.108
1096.8,1045.788
1096.9,1045.469
1097,1045.15
1097.1,1044.831
1097.2,1044.513
1097.3,1044.194
1097.4,1043.877
1097.5,1043.559
1097.6,1043.242
1097.7,1042.925
1097.8,1042.608
1097.9,1042.291
1098,1041.975
1098.1,1041.659
1098.2,1041.344
1098.3,1041.029
1098.4,1040.714
1098.5,1040.399
1098.6,1040.084
1098.7,1039.77
1098.8,1039.456
1098.9,1039.143
1099,1038.829
1099.1,1038.516
1099.2,1038.204
1099.3,1037.891
1099.4,1037.579
1099.5,1037.267
1099.6,1036.955
1099.7,1036.644
1099.8,1036.333
1099.9,1036.022
1100,1035.712
1100.1,1035.401
1100.2,1035.091
1100.3,1034.782
1100.4,1034.472
1100.5,1034.163
1100.6,1033.854
1100.7,1033.546
1100.8,1033.237
1100.9,1032.929
1101,1032.621
1101.1,1032.314
1101.2,1032.007
1101.3,1031.7
1101.4,1031.393
1101.5,1031.087
1101.6,1030.78
1101.7,1030.475
1101.8,1030.169
1101.9,1029.864
1102,1029.559
1102.1,1029.254
1102.2,1028.949
1102.3,1028.645
1102.4,1028.341
1102.5,1028.037
1102.6,1027.734
1102.7,1027.431
1102.8,1027.128
1102.9,1026.825
1103,1026.523
1103.1,1026.221
1103.2,1025.919
1103.3,1025.617
1103.4,1025.316
1103.5,1025.015
1103.6,1024.714
1103.7,1024.414
1103.8,1024.113
1103.9,1023.813
1104,1023.514
1104.1,1023.214
1104.2,1022.915
1104.3,1022.616
1104.4,1022.317
1104.5,1022.019
1104.6,1021.721
1104.7,1021.423
1104.8,1021.125
1104.9,1020.828
1105,1020.531
1105.1,1020.234
1105.2,1019.937
1105.3,1019.641
1105.4,1019.345
1105.5,1019.049
1105.6,1018.753
1105.7,1018.458
1105.8,1018.163
1105.9,1017.868
1106,1017.574
1106.1,1017.279
1106.2,1016.985
1106.3,1016.692
1106.4,1016.398
1106.5,1016.105
1106.6,1015.812
1106.7,1015.519
1106.8,1015.226
1106.9,1014.934
1107,1014.642
1107.1,1014.35
1107.2,1014.059
1107.3,1013.768
1107.4,1013.477
1107.5,1013.186
1107.6,1012.896
1107.7,1012.605
1107.8,1012.315
1107.9,1012.026
1108,1011.736
1108.1,1011.447
1108.2,1011.158
1108.3,1010.869
1108.4,1010.581
1108.5,1010.292
1108.6,1010.004
1108.7,1009.717
1108.8,1009.429
1108.9,1009.142
1109,1008.855
1109.1,1008.568
1109.2,1008.282
1109.3,1007.995
1109.4,1007.709
1109.5,1007.424
1109.6,1007.138
1109.7,1006.853
1109.8,1006.568
1109.9,1006.283
1110,1005.998
1110.1,1005.714
1110.2,1005.43
1110.3,1005.146
1110.4,1004.863
1110.5,1004.579
1110.6,1004.296
1110.7,1004.013
1110.8,1003.731
1110.9,1003.448
1111,1003.166
1111.1,1002.884
1111.2,1002.602
1111.3,1002.321
1111.4,1002.04
1111.5,1001.759
1111.6,1001.478
1111.7,1001.198
1111.8,1000.918
1111.9,1000.638
1112,1000.358
1112.1,1000.078
1112.2,999.799
1112.3,999.52
1112.4,999.241
1112.5,998.963
1112.6,998.684
1112.7,998.406
1112.8,998.128
1112.9,997.851
1113,997.573
1113.1,997.296
1113.2,997.019
1113.3,996.742
1113.4,996.466
1113.5,996.19
1113.6,995.914
1113.7,995.638
1113.8,995.362
1113.9,995.087
1114,994.812
1114.1,994.537
1114.2,994.263
1114.3,993.988
1114.4,993.714
1114.5,993.44
1114.6,993.167
1114.7,992.893
1114.8,992.62
1114.9,992.347
1115,992.074
1115.1,991.802
1115.2,991.529
1115.3,991.257
1115.4,990.985
1115.5,990.714
1115.6,990.442
1115.7,990.171
1115.8,989.9
1115.9,989.629
1116,989.359
1116.1,989.089
1116.2,988.819
1116.3,988.549
1116.4,988.279
1116.5,988.01
1116.6,987.741
1116.7,987.472
1116.8,987.203
1116.9,986.934
1117,986.666
1117.1,986.398
1117.2,986.13
1117.3,985.863
1117.4,985.595
1117.5,985.328
1117.6,985.061
1117.7,984.795
1117.8,984.528
1117.9,984.262
1118,983.996
1118.1,983.73
1118.2,983.464
1118.3,983.199
1118.4,982.934
1118.5,982.669
1118.6,982.404
1118.7,982.14
1118.8,981.875
1118.9,981.611
1119,981.347
1119.1,981.084
1119.2,980.82
1119.3,980.557
1119.4,980.294
1119.5,980.031
1119.6,979.769
1119.7,979.506
1119.8,979.244
1119.9,978.982
1120,978.721
1120.1,978.459
1120.2,978.198
1120.3,977.937
1120.4,977.676
1120.5,977.415
1120.6,977.155
1120.7,976.895
1120.8,976.635
1120.9,976.375
1121,976.115
1121.1,975.856
1121.2,975.597
1121.3,975.338
1121.4,975.079
1121.5,974.821
1121.6,974.562
1121.7,974.304
1121.8,974.046
1121.9,973.789
1122,973.531
1122.1,973.274
1122.2,973.017
1122.3,972.76
1122.4,972.504
1122.5,972.247
1122.6,971.991
1122.7,971.735
1122.8,971.479
1122.9,971.224
1123,970.968
1123.1,970.713
1123.2,970.458
1123.3,970.203
1123.4,969.949
1123.5,969.694
1123.6,969.44
1123.7,969.186
1123.8,968.933
1123.9,968.679
1124,968.426
1124.1,968.173
1124.2,967.92
1124.3,967.667
1124.4,967.414
1124.5,967.162
1124.6,966.91
1124.7,966.658
1124.8,966.406
1124.9,966.155
1125,965.904
1125.1,965.653
1125.2,965.402
1125.3,965.151
1125.4,964.901
1125.5,964.65
1125.6,964.4
1125.7,964.15
1125.8,963.901
1125.9,963.651
1126,963.402
1126.1,963.153
1126.2,962.904
1126.3,962.655
1126.4,962.407
1126.5,962.158
1126.6,961.91
1126.7,961.662
1126.8,961.415
1126.9,961.167
1127,960.92
1127.1,960.673
1127.2,960.426
1127.3,960.179
1127.4,959.933
1127.5,959.686
1127.6,959.44
1127.7,959.194
1127.8,958.949
1127.9,958.703
1128,958.458
1128.1,958.213
1128.2,957.968
1128.3,957.723
1128.4,957.478
1128.5,957.234
1128.6,956.99
1128.7,956.746
1128.8,956.502
1128.9,956.259
1129,956.015
1129.1,955.772
1129.2,955.529
1129.3,955.286
1129.4,955.043
1129.5,954.801
1129.6,954.559
1129.7,954.317
1129.8,954.075
1129.9,953.833
1130,953.592
1130.1,953.35
1130.2,953.109
1130.3,952.868
1130.4,952.628
1130.5,952.387
1130.6,952.147
1130.7,951.907
1130.8,951.667
1130.9,951.427
1131,951.187
1131.1,950.948
1131.2,950.709
1131.3,950.47
1131.4,950.231
1131.5,949.992
1131.6,949.754
1131.7,949.515
1131.8,949.277
1131.9,949.039
1132,948.802
1132.1,948.564
1132.2,948.327
1132.3,948.09
1132.4,947.853
1132.5,947.616
1132.6,947.379
1132.7,947.143
1132.8,946.907
1132.9,946.671
1133,946.435
1133.1,946.199
1133.2,945.964
1133.3,945.728
1133.4,945.493
1133.5,945.258
1133.6,945.023
1133.7,944.789
1133.8,944.554
1133.9,944.32
1134,944.086
1134.1,943.852
1134.2,943.619
1134.3,943.385
1134.4,943.152
1134.5,942.919
1134.6,942.686
1134.7,942.453
1134.8,942.22
1134.9,941.988
1135,941.756
1135.1,941.524
1135.2,941.292
1135.3,941.06
1135.4,940.829
1135.5,940.597
1135.6,940.366
1135.7,940.135
1135.8,939.904
1135.9,939.674
1136,939.443
1136.1,939.213
1136.2,938.983
1136.3,938.753
1136.4,938.523
1136.5,938.294
1136.6,938.064
1136.7,937.835
1136.8,937.606
1136.9,937.377
1137,937.148
1137.1,936.92
1137.2,936.692
1137.3,936.463
1137.4,936.235
1137.5,936.008
1137.6,935.78
1137.7,935.553
1137.8,935.325
1137.9,935.098
1138,934.871
1138.1,934.644
1138.2,934.418
1138.3,934.191
1138.4,933.965
1138.5,933.739
1138.6,933.513
1138.7,933.288
1138.8,933.062
1138.9,932.837
1139,932.611
1139.1,932.386
1139.2,932.161
1139.3,931.937
1139.4,931.712
1139.5,931.488
1139.6,931.264
1139.7,931.04
1139.8,930.816
1139.9,930.592
1140,930.369
1140.1,930.145
1140.2,929.922
1140.3,929.699
1140.4,929.476
1140.5,929.254
1140.6,929.031
1140.7,928.809
1140.8,928.587
1140.9,928.365
1141,928.143
1141.1,927.921
1141.2,927.7
1141.3,927.478
1141.4,927.257
1141.5,927.036
1141.6,926.815
1141.7,926.595
1141.8,926.374
1141.9,926.154
1142,925.934
1142.1,925.714
1142.2,925.494
1142.3,925.274
1142.4,925.055
1142.5,924.836
1142.6,924.616
1142.7,924.397
1142.8,924.179
1142.9,923.96
1143,923.741
1143.1,923.523
1143.2,923.305
1143.3,923.087
1143.4,922.869
1143.5,922.651
1143.6,922.434
1143.7,922.217
1143.8,921.999
1143.9,921.782
1144,921.565
1144.1,921.349
1144.2,921.132
1144.3,920.916
1144.4,920.7
1144.5,920.484
1144.6,920.268
1144.7,920.052
1144.8,919.836
1144.9,919.621
1145,919.406
1145.1,919.191
1145.2,918.976
1145.3,918.761
1145.4,918.546
1145.5,918.332
1145.6,918.118
1145.7,917.903
1145.8,917.689
1145.9,917.476
1146,917.262
1146.1,917.048
1146.2,916.835
1146.3,916.622
1146.4,916.409
1146.5,916.196
1146.6,915.983
1146.7,915.771
1146.8,915.558
1146.9,915.346
1147,915.134
1147.1,914.922
1147.2,914.71
1147.3,914.499
1147.4,914.287
1147.5,914.076
1147.6,913.865
1147.7,913.654
1147.8,913.443
1147.9,913.232
1148,913.022
1148.1,912.811
1148.2,912.601
1148.3,912.391
1148.4,912.181
1148.5,911.971
1148.6,911.762
1148.7,911.552
1148.8,911.343
1148.9,911.134
1149,910.925
1149.1,910.716
1149.2,910.508
1149.3,910.299
1149.4,910.091
1149.5,909.882
1149.6,909.674
1149.7,909.467
1149.8,909.259
1149.9,909.051
1150,908.844
1150.1,908.636
1150.2,908.429
1150.3,908.222
1150.4,908.015
1150.5,907.809
1150.6,907.602
1150.7,907.396
1150.8,907.19
1150.9,906.983
1151,906.777
1151.1,906.572
1151.2,906.366
1151.3,906.161
1151.4,905.955
1151.5,905.75
1151.6,905.545
1151.7,905.34
1151.8,905.135
1151.9,904.931
1152,904.726
1152.1,904.522
1152.2,904.318
1152.3,904.114
1152.4,903.91
1152.5,903.706
1152.6,903.503
1152.7,903.299
1152.8,903.096
1152.9,902.893
1153,902.69
1153.1,902.487
1153.2,902.284
1153.3,902.082
1153.4,901.88
1153.5,901.677
1153.6,901.475
1153.7,901.273
1153.8,901.072
1153.9,900.87
1154,900.668
1154.1,900.467
1154.2,900.266
1154.3,900.065
1154.4,899.864
1154.5,899.663
1154.6,899.462
1154.7,899.262
1154.8,899.062
1154.9,898.861
1155,898.661
1155.1,898.461
1155.2,898.262
1155.3,898.062
1155.4,897.862
1155.5,897.663
1155.6,897.464
1155.7,897.265
1155.8,897.066
1155.9,896.867
1156,896.669
1156.1,896.47
1156.2,896.272
1156.3,896.074
1156.4,895.875
1156.5,895.678
1156.6,895.48
1156.7,895.282
1156.8,895.085
1156.9,894.887
1157,894.69
1157.1,894.493
1157.2,894.296
1157.3,894.099
1157.4,893.903
1157.5,893.706
1157.6,893.51
1157.7,893.313
1157.8,893.117
1157.9,892.921
1158,892.726
1158.1,892.53
1158.2,892.334
1158.3,892.139
1158.4,891.944
1158.5,891.749
1158.6,891.554
1158.7,891.359
1158.8,891.164
1158.9,890.97
1159,890.775
1159.1,890.581
1159.2,890.387
1159.3,890.193
1159.4,889.999
1159.5,889.805
1159.6,889.611
1159.7,889.418
1159.8,889.225
1159.9,889.032
1160,888.838
1160.1,888.646
1160.2,888.453
1160.3,888.26
1160.4,888.068
1160.5,887.875
1160.6,887.683
1160.7,887.491
1160.8,887.299
1160.9,887.107
1161,886.915
1161.1,886.724
1161.2,886.532
1161.3,886.341
1161.4,886.15
1161.5,885.959
1161.6,885.768
1161.7,885.577
1161.8,885.387
1161.9,885.196
1162,885.006
1162.1,884.816
1162.2,884.626
1162.3,884.436
1162.4,884.246
1162.5,884.056
1162.6,883.867
1162.7,883.677
1162.8,883.488
1162.9,883.299
1163,883.11
1163.1,882.921
1163.2,882.732
1163.3,882.543
1163.4,882.355
1163.5,882.166
1163.6,881.978
1163.7,881.79
1163.8,881.602
1163.9,881.414
1164,881.227
1164.1,881.039
1164.2,880.852
1164.3,880.664
1164.4,880.477
1164.5,880.29
1164.6,880.103
1164.7,879.916
1164.8,879.73
1164.9,879.543
1165,879.357
1165.1,879.17
1165.2,878.984
1165.3,878.798
1165.4,878.612
1165.5,878.427
1165.6,878.241
1165.7,878.055
1165.8,877.87
1165.9,877.685
1166,877.5
1166.1,877.315
1166.2,877.13
1166.3,876.945
1166.4,876.761
1166.5,876.576
1166.6,876.392
1166.7,876.208
1166.8,876.023
1166.9,875.839
1167,875.656
1167.1,875.472
1167.2,875.288
1167.3,875.105
1167.4,874.922
1167.5,874.738
1167.6,874.555
1167.7,874.372
1167.8,874.189
1167.9,874.007
1168,873.824
1168.1,873.642
1168.2,873.459
1168.3,873.277
1168.4,873.095
1168.5,872.913
1168.6,872.731
1168.7,872.55
1168.8,872.368
1168.9,872.187
1169,872.005
1169.1,871.824
1169.2,871.643
1169.3,871.462
1169.4,871.281
1169.5,871.1
1169.6,870.92
1169.7,870.739
1169.8,870.559
1169.9,870.379
1170,870.199
1170.1,870.019
1170.2,869.839
1170.3,869.659
1170.4,869.48
1170.5,869.3
1170.6,869.121
1170.7,868.942
1170.8,868.762
1170.9,868.583
1171,868.405
1171.1,868.226
1171.2,868.047
1171.3,867.869
1171.4,867.69
1171.5,867.512
1171.6,867.334
1171.7,867.156
1171.8,866.978
1171.9,866.8
1172,866.623
1172.1,866.445
1172.2,866.268
1172.3,866.09
1172.4,865.913
1172.5,865.736
1172.6,865.559
1172.7,865.382
1172.8,865.206
1172.9,865.029
1173,864.853
1173.1,864.676
1173.2,864.5
1173.3,864.324
1173.4,864.148
1173.5,863.972
1173.6,863.796
1173.7,863.621
1173.8,863.445
1173.9,863.27
1174,863.095
1174.1,862.919
1174.2,862.744
1174.3,862.57
1174.4,862.395
1174.5,862.22
1174.6,862.045
1174.7,861.871
1174.8,861.697
1174.9,861.523
1175,861.348
1175.1,861.174
1175.2,861.001
1175.3,860.827
1175.4,860.653
1175.5,860.48
1175.6,860.306
1175.7,860.133
1175.8,859.96
1175.9,859.787
1176,859.614
1176.1,859.441
1176.2,859.268
1176.3,859.096
1176.4,858.923
1176.5,858.751
1176.6,858.579
1176.7,858.407
1176.8,858.235
1176.9,858.063
1177,857.891
1177.1,857.719
1177.2,857.548
1177.3,857.376
1177.4,857.205
1177.5,857.034
1177.6,856.863
1177.7,856.692
1177.8,856.521
1177.9,856.35
1178,856.18
1178.1,856.009
1178.2,855.839
1178.3,855.668
1178.4,855.498
1178.5,855.328
1178.6,855.158
1178.7,854.988
1178.8,854.819
1178.9,854.649
1179,854.479
1179.1,854.31
1179.2,854.141
1179.3,853.972
1179.4,853.803
1179.5,853.634
1179.6,853.465
1179.7,853.296
1179.8,853.128
1179.9,852.959
1180,852.791
1180.1,852.622
1180.2,852.454
1180.3,852.286
1180.4,852.118
1180.5,851.95
1180.6,851.783
1180.7,851.615
1180.8,851.448
1180.9,851.28
1181,851.113
1181.1,850.946
1181.2,850.779
1181.3,850.612
1181.4,850.445
1181.5,850.278
1181.6,850.112
1181.7,849.945
1181.8,849.779
1181.9,849.612
1182,849.446
1182.1,849.28
1182.2,849.114
1182.3,848.948
1182.4,848.783
1182.5,848.617
1182.6,848.452
1182.7,848.286
1182.8,848.121
1182.9,847.956
1183,847.791
1183.1,847.626
1183.2,847.461
1183.3,847.296
1183.4,847.131
1183.5,846.967
1183.6,846.802
1183.7,846.638
1183.8,846.474
1183.9,846.31
1184,846.146
1184.1,845.982
1184.2,845.818
1184.3,845.654
1184.4,845.491
1184.5,845.327
1184.6,845.164
1184.7,845
1184.8,844.837
1184.9,844.674
1185,844.511
1185.1,844.348
1185.2,844.186
1185.3,844.023
1185.4,843.861
1185.5,843.698
1185.6,843.536
1185.7,843.374
1185.8,843.212
1185.9,843.05
1186,842.888
1186.1,842.726
1186.2,842.564
1186.3,842.403
1186.4,842.241
1186.5,842.08
1186.6,841.919
1186.7,841.757
1186.8,841.596
1186.9,841.435
1187,841.275
1187.1,841.114
1187.2,840.953
1187.3,840.793
1187.4,840.632
1187.5,840.472
1187.6,840.312
1187.7,840.152
1187.8,839.992
1187.9,839.832
1188,839.672
1188.1,839.512
1188.2,839.353
1188.3,839.193
1188.4,839.034
1188.5,838.874
1188.6,838.715
1188.7,838.556
1188.8,838.397
1188.9,838.238
1189,838.079
1189.1,837.921
1189.2,837.762
1189.3,837.604
1189.4,837.445
1189.5,837.287
1189.6,837.129
1189.7,836.971
1189.8,836.813
1189.9,836.655
1190,836.497
1190.1,836.34
1190.2,836.182
1190.3,836.025
1190.4,835.867
1190.5,835.71
1190.6,835.553
1190.7,835.396
1190.8,835.239
1190.9,835.082
1191,834.925
1191.1,834.768
1191.2,834.612
1191.3,834.455
1191.4,834.299
1191.5,834.143
1191.6,833.987
1191.7,833.831
1191.8,833.675
1191.9,833.519
1192,833.363
1192.1,833.207
1192.2,833.052
1192.3,832.896
1192.4,832.741
1192.5,832.586
1192.6,832.431
1192.7,832.275
1192.8,832.12
1192.9,831.966
1193,831.811
1193.1,831.656
1193.2,831.502
1193.3,831.347
1193.4,831.193
1193.5,831.038
1193.6,830.884
1193.7,830.73
1193.8,830.576
1193.9,830.422
1194,830.269
1194.1,830.115
1194.2,829.961
1194.3,829.808
1194.4,829.654
1194.5,829.501
1194.6,829.348
1194.7,829.195
1194.8,829.042
1194.9,828.889
1195,828.736
1195.1,828.583
1195.2,828.431
1195.3,828.278
1195.4,828.126
1195.5,827.973
1195.6,827.821
1195.7,827.669
1195.8,827.517
1195.9,827.365
1196,827.213
1196.1,827.061
1196.2,826.91
1196.3,826.758
1196.4,826.606
1196.5,826.455
1196.6,826.304
1196.7,826.153
1196.8,826.001
1196.9,825.85
1197,825.7
1197.1,825.549
1197.2,825.398
1197.3,825.247
1197.4,825.097
1197.5,824.946
1197.6,824.796
1197.7,824.646
1197.8,824.496
1197.9,824.346
1198,824.196
1198.1,824.046
1198.2,823.896
1198.3,823.746
1198.4,823.597
1198.5,823.447
1198.6,823.298
1198.7,823.148
1198.8,822.999
1198.9,822.85
1199,822.701
1199.1,822.552
1199.2,822.403
1199.3,822.255
1199.4,822.106
1199.5,821.957
1199.6,821.809
1199.7,821.66
1199.8,821.512
1199.9,821.364
1200,821.216
1200.1,821.068
1200.2,820.92
1200.3,820.772
1200.4,820.624
1200.5,820.477
1200.6,820.329
1200.7,820.182
1200.8,820.034
1200.9,819.887
1201,819.74
1201.1,819.593
1201.2,819.446
1201.3,819.299
1201.4,819.152
1201.5,819.005
1201.6,818.859
1201.7,818.712
1201.8,818.566
1201.9,818.419
1202,818.273
1202.1,818.127
1202.2,817.981
1202.3,817.835
1202.4,817.689
1202.5,817.543
1202.6,817.397
1202.7,817.251
1202.8,817.106
1202.9,816.96
1203,816.815
1203.1,816.67
1203.2,816.525
1203.3,816.379
1203.4,816.234
1203.5,816.089
1203.6,815.945
1203.7,815.8
1203.8,815.655
1203.9,815.511
1204,815.366
1204.1,815.222
1204.2,815.077
1204.3,814.933
1204.4,814.789
1204.5,814.645
1204.6,814.501
1204.7,814.357
1204.8,814.213
1204.9,814.07
1205,813.926
1205.1,813.783
1205.2,813.639
1205.3,813.496
1205.4,813.352
1205.5,813.209
1205.6,813.066
1205.7,812.923
1205.8,812.78
1205.9,812.638
1206,812.495
1206.1,812.352
1206.2,812.21
1206.3,812.067
1206.4,811.925
1206.5,811.782
1206.6,811.64
1206.7,811.498
1206.8,811.356
1206.9,811.214
1207,811.072
1207.1,810.93
1207.2,810.789
1207.3,810.647
1207.4,810.506
1207.5,810.364
1207.6,810.223
1207.7,810.082
1207.8,809.94
1207.9,809.799
1208,809.658
1208.1,809.517
1208.2,809.377
1208.3,809.236
1208.4,809.095
1208.5,808.955
1208.6,808.814
1208.7,808.674
1208.8,808.533
1208.9,808.393
1209,808.253
1209.1,808.113
1209.2,807.973
1209.3,807.833
1209.4,807.693
1209.5,807.554
1209.6,807.414
1209.7,807.274
1209.8,807.135
1209.9,806.996
1210,806.856
1210.1,806.717
1210.2,806.578
1210.3,806.439
1210.4,806.3
1210.5,806.161
1210.6,806.022
1210.7,805.883
1210.8,805.745
1210.9,805.606
1211,805.468
1211.1,805.329
1211.2,805.191
1211.3,805.053
1211.4,804.915
1211.5,804.777
1211.6,804.639
1211.7,804.501
1211.8,804.363
1211.9,804.225
1212,804.088
1212.1,803.95
1212.2,803.813
1212.3,803.675
1212.4,803.538
1212.5,803.401
1212.6,803.264
1212.7,803.127
1212.8,802.99
1212.9,802.853
1213,802.716
1213.1,802.579
1213.2,802.443
1213.3,802.306
1213.4,802.169
1213.5,802.033
1213.6,801.897
1213.7,801.761
1213.8,801.624
1213.9,801.488
1214,801.352
1214.1,801.216
1214.2,801.081
1214.3,800.945
1214.4,800.809
1214.5,800.674
1214.6,800.538
1214.7,800.403
1214.8,800.267
1214.9,800.132
1215,799.997
1215.1,799.862
1215.2,799.727
1215.3,799.592
1215.4,799.457
1215.5,799.322
1215.6,799.187
1215.7,799.053
1215.8,798.918
1215.9,798.784
1216,798.649
1216.1,798.515
1216.2,798.381
1216.3,798.247
1216.4,798.113
1216.5,797.979
1216.6,797.845
1216.7,797.711
1216.8,797.577
1216.9,797.443
1217,797.31
1217.1,797.176
1217.2,797.043
1217.3,796.91
1217.4,796.776
1217.5,796.643
1217.6,796.51
1217.7,796.377
1217.8,796.244
1217.9,796.111
1218,795.978
1218.1,795.846
1218.2,795.713
1218.3,795.58
1218.4,795.448
1218.5,795.315
1218.6,795.183
1218.7,795.051
1218.8,794.919
1218.9,794.787
1219,794.654
1219.1,794.523
1219.2,794.391
1219.3,794.259
1219.4,794.127
1219.5,793.996
1219.6,793.864
1219.7,793.732
1219.8,793.601
1219.9,793.47
1220,793.339
1220.1,793.207
1220.2,793.076
1220.3,792.945
1220.4,792.814
1220.5,792.683
1220.6,792.553
1220.7,792.422
1220.8,792.291
1220.9,792.161
1221,792.03
1221.1,791.9
1221.2,791.77
1221.3,791.639
1221.4,791.509
1221.5,791.379
1221.6,791.249
1221.7,791.119
1221.8,790.989
1221.9,790.859
1222,790.73
1222.1,790.6
1222.2,790.47
1222.3,790.341
1222.4,790.211
1222.5,790.082
1222.6,789.953
1222.7,789.824
1222.8,789.695
1222.9,789.566
1223,789.437
1223.1,789.308
1223.2,789.179
1223.3,789.05
1223.4,788.921
1223.5,788.793
1223.6,788.664
1223.7,788.536
1223.8,788.408
1223.9,788.279
1224,788.151
1224.1,788.023
1224.2,787.895
1224.3,787.767
1224.4,787.639
1224.5,787.511
1224.6,787.383
1224.7,787.256
1224.8,787.128
1224.9,787
1225,786.873
1225.1,786.745
1225.2,786.618
1225.3,786.491
1225.4,786.364
1225.5,786.237
1225.6,786.11
1225.7,785.983
1225.8,785.856
1225.9,785.729
1226,785.602
1226.1,785.475
1226.2,785.349
1226.3,785.222
1226.4,785.096
1226.5,784.97
1226.6,784.843
1226.7,784.717
1226.8,784.591
1226.9,784.465
1227,784.339
1227.1,784.213
1227.2,784.087
1227.3,783.961
1227.4,783.835
1227.5,783.71
1227.6,783.584
1227.7,783.459
1227.8,783.333
1227.9,783.208
1228,783.083
1228.1,782.957
1228.2,782.832
1228.3,782.707
1228.4,782.582
1228.5,782.457
1228.6,782.332
1228.7,782.208
1228.8,782.083
1228.9,781.958
1229,781.834
1229.1,781.709
1229.2,781.585
1229.3,781.46
1229.4,781.336
1229.5,781.212
1229.6,781.088
1229.7,780.964
1229.8,780.84
1229.9,780.716
1230,780.592
1230.1,780.468
1230.2,780.344
1230.3,780.221
1230.4,780.097
1230.5,779.974
1230.6,779.85
1230.7,779.727
1230.8,779.603
1230.9,779.48
1231,779.357
1231.1,779.234
1231.2,779.111
1231.3,778.988
1231.4,778.865
1231.5,778.742
1231.6,778.62
1231.7,778.497
1231.8,778.374
1231.9,778.252
1232,778.129
1232.1,778.007
1232.2,777.885
1232.3,777.762
1232.4,777.64
1232.5,777.518
1232.6,777.396
1232.7,777.274
1232.8,777.152
1232.9,777.03
1233,776.908
1233.1,776.787
1233.2,776.665
1233.3,776.544
1233.4,776.422
1233.5,776.301
1233.6,776.179
1233.7,776.058
1233.8,775.937
1233.9,775.816
1234,775.695
1234.1,775.574
1234.2,775.453
1234.3,775.332
1234.4,775.211
1234.5,775.09
1234.6,774.97
1234.7,774.849
1234.8,774.728
1234.9,774.608
1235,774.487
1235.1,774.367
1235.2,774.247
1235.3,774.127
1235.4,774.007
1235.5,773.887
1235.6,773.767
1235.7,773.647
1235.8,773.527
1235.9,773.407
1236,773.287
1236.1,773.168
1236.2,773.048
1236.3,772.928
1236.4,772.809
1236.5,772.69
1236.6,772.57
1236.7,772.451
1236.8,772.332
1236.9,772.213
1237,772.094
1237.1,771.975
1237.2,771.856
1237.3,771.737
1237.4,771.618
1237.5,771.499
1237.6,771.381
1237.7,771.262
1237.8,771.144
1237.9,771.025
1238,770.907
1238.1,770.788
1238.2,770.67
1238.3,770.552
1238.4,770.434
1238.5,770.316
1238.6,770.198
1238.7,770.08
1238.8,769.962
1238.9,769.844
1239,769.727
1239.1,769.609
1239.2,769.491
1239.3,769.374
1239.4,769.256
1239.5,769.139
1239.6,769.022
1239.7,768.904
1239.8,768.787
1239.9,768.67
1240,768.553
1240.1,768.436
1240.2,768.319
1240.3,768.202
1240.4,768.085
1240.5,767.968
1240.6,767.852
1240.7,767.735
1240.8,767.619
1240.9,767.502
1241,767.386
1241.1,767.269
1241.2,767.153
1241.3,767.037
1241.4,766.921
1241.5,766.804
1241.6,766.688
1241.7,766.572
1241.8,766.457
1241.9,766.341
1242,766.225
1242.1,766.109
1242.2,765.994
1242.3,765.878
1242.4,765.762
1242.5,765.647
1242.6,765.532
1242.7,765.416
1242.8,765.301
1242.9,765.186
1243,765.071
1243.1,764.955
1243.2,764.84
1243.3,764.726
1243.4,764.611
1243.5,764.496
1243.6,764.381
1243.7,764.266
1243.8,764.152
1243.9,764.037
1244,763.923
1244.1,763.808
1244.2,763.694
1244.3,763.579
1244.4,763.465
1244.5,763.351
1244.6,763.237
1244.7,763.123
1244.8,763.009
1244.9,762.895
1245,762.781
1245.1,762.667
1245.2,762.553
1245.3,762.44
1245.4,762.326
1245.5,762.212
1245.6,762.099
1245.7,761.985
1245.8,761.872
1245.9,761.759
1246,761.645
1246.1,761.532
1246.2,761.419
1246.3,761.306
1246.4,761.193
1246.5,761.08
1246.6,760.967
1246.7,760.854
1246.8,760.742
1246.9,760.629
1247,760.516
1247.1,760.404
1247.2,760.291
1247.3,760.179
1247.4,760.066
1247.5,759.954
1247.6,759.842
1247.7,759.729
1247.8,759.617
1247.9,759.505
1248,759.393
1248.1,759.281
1248.2,759.169
1248.3,759.057
1248.4,758.946
1248.5,758.834
1248.6,758.722
1248.7,758.611
1248.8,758.499
1248.9,758.388
1249,758.276
1249.1,758.165
1249.2,758.054
1249.3,757.942
1249.4,757.831
1249.5,757.72
1249.6,757.609
1249.7,757.498
1249.8,757.387
1249.9,757.276
1250,757.165
1250.1,757.055
1250.2,756.944
1250.3,756.833
1250.4,756.723
1250.5,756.612
1250.6,756.502
1250.7,756.391
1250.8,756.281
1250.9,756.171
1251,756.06
1251.1,755.95
1251.2,755.84
1251.3,755.73
1251.4,755.62
1251.5,755.51
1251.6,755.4
1251.7,755.29
1251.8,755.181
1251.9,755.071
1252,754.961
1252.1,754.852
1252.2,754.742
1252.3,754.633
1252.4,754.523
1252.5,754.414
1252.6,754.305
1252.7,754.196
1252.8,754.086
1252.9,753.977
1253,753.868
1253.1,753.759
1253.2,753.65
1253.3,753.542
1253.4,753.433
1253.5,753.324
1253.6,753.215
1253.7,753.107
1253.8,752.998
1253.9,752.89
1254,752.781
1254.1,752.673
1254.2,752.564
1254.3,752.456
1254.4,752.348
1254.5,752.24
1254.6,752.132
1254.7,752.024
1254.8,751.916
1254.9,751.808
1255,751.7
1255.1,751.592
1255.2,751.484
1255.3,751.376
1255.4,751.269
1255.5,751.161
1255.6,751.054
1255.7,750.946
1255.8,750.839
1255.9,750.731
1256,750.624
1256.1,750.517
1256.2,750.41
1256.3,750.303
1256.4,750.196
1256.5,750.088
1256.6,749.982
1256.7,749.875
1256.8,749.768
1256.9,749.661
1257,749.554
1257.1,749.448
1257.2,749.341
1257.3,749.234
1257.4,749.128
1257.5,749.021
1257.6,748.915
1257.7,748.809
1257.8,748.702
1257.9,748.596
1258,748.49
1258.1,748.384
1258.2,748.278
1258.3,748.172
1258.4,748.066
1258.5,747.96
1258.6,747.854
1258.7,747.748
1258.8,747.643
1258.9,747.537
1259,747.431
1259.1,747.326
1259.2,747.22
1259.3,747.115
1259.4,747.01
1259.5,746.904
1259.6,746.799
1259.7,746.694
1259.8,746.589
1259.9,746.484
1260,746.379
1260.1,746.274
1260.2,746.169
1260.3,746.064
1260.4,745.959
1260.5,745.854
1260.6,745.749
1260.7,745.645
1260.8,745.54
1260.9,745.436
1261,745.331
1261.1,745.227
1261.2,745.122
1261.3,745.018
1261.4,744.914
1261.5,744.809
1261.6,744.705
1261.7,744.601
1261.8,744.497
1261.9,744.393
1262,744.289
1262.1,744.185
1262.2,744.081
1262.3,743.978
1262.4,743.874
1262.5,743.77
1262.6,743.667
1262.7,743.563
1262.8,743.46
1262.9,743.356
1263,743.253
1263.1,743.149
1263.2,743.046
1263.3,742.943
1263.4,742.84
1263.5,742.737
1263.6,742.633
1263.7,742.53
1263.8,742.427
1263.9,742.325
1264,742.222
1264.1,742.119
1264.2,742.016
1264.3,741.913
1264.4,741.811
1264.5,741.708
1264.6,741.606
1264.7,741.503
1264.8,741.401
1264.9,741.298
1265,741.196
1265.1,741.094
1265.2,740.992
1265.3,740.889
1265.4,740.787
1265.5,740.685
1265.6,740.583
1265.7,740.481
1265.8,740.379
1265.9,740.277
1266,740.176
1266.1,740.074
1266.2,739.972
1266.3,739.871
1266.4,739.769
1266.5,739.668
1266.6,739.566
1266.7,739.465
1266.8,739.363
1266.9,739.262
1267,739.161
1267.1,739.059
1267.2,738.958
1267.3,738.857
1267.4,738.756
1267.5,738.655
1267.6,738.554
1267.7,738.453
1267.8,738.352
1267.9,738.252
1268,738.151
1268.1,738.05
1268.2,737.95
1268.3,737.849
1268.4,737.748
1268.5,737.648
1268.6,737.548
1268.7,737.447
1268.8,737.347
1268.9,737.247
1269,737.146
1269.1,737.046
1269.2,736.946
1269.3,736.846
1269.4,736.746
1269.5,736.646
1269.6,736.546
1269.7,736.446
1269.8,736.346
1269.9,736.247
1270,736.147
1270.1,736.047
1270.2,735.948
1270.3,735.848
1270.4,735.749
1270.5,735.649
1270.6,735.55
1270.7,735.451
1270.8,735.351
1270.9,735.252
1271,735.153
1271.1,735.054
1271.2,734.955
1271.3,734.856
1271.4,734.757
1271.5,734.658
1271.6,734.559
1271.7,734.46
1271.8,734.361
1271.9,734.262
1272,734.164
1272.1,734.065
1272.2,733.966
1272.3,733.868
1272.4,733.769
1272.5,733.671
1272.6,733.573
1272.7,733.474
1272.8,733.376
1272.9,733.278
1273,733.18
1273.1,733.082
1273.2,732.983
1273.3,732.885
1273.4,732.787
1273.5,732.689
1273.6,732.592
1273.7,732.494
1273.8,732.396
1273.9,732.298
1274,732.201
1274.1,732.103
1274.2,732.005
1274.3,731.908
1274.4,731.81
1274.5,731.713
1274.6,731.616
1274.7,731.518
1274.8,731.421
1274.9,731.324
1275,731.227
1275.1,731.129
1275.2,731.032
1275.3,730.935
1275.4,730.838
1275.5,730.741
1275.6,730.644
1275.7,730.548
1275.8,730.451
1275.9,730.354
1276,730.257
1276.1,730.161
1276.2,730.064
1276.3,729.968
1276.4,729.871
1276.5,729.775
1276.6,729.678
1276.7,729.582
1276.8,729.486
1276.9,729.389
1277,729.293
1277.1,729.197
1277.2,729.101
1277.3,729.005
1277.4,728.909
1277.5,728.813
1277.6,728.717
1277.7,728.621
1277.8,728.525
1277.9,728.43
1278,728.334
1278.1,728.238
1278.2,728.143
1278.3,728.047
1278.4,727.952
1278.5,727.856
1278.6,727.761
1278.7,727.665
1278.8,727.57
1278.9,727.475
1279,727.379
1279.1,727.284
1279.2,727.189
1279.3,727.094
1279.4,726.999
1279.5,726.904
1279.6,726.809
1279.7,726.714
1279.8,726.619
1279.9,726.525
1280,726.43
1280.1,726.335
1280.2,726.24
1280.3,726.146
1280.4,726.051
1280.5,725.957
1280.6,725.862
1280.7,725.768
1280.8,725.674
1280.9,725.579
1281,725.485
1281.1,725.391
1281.2,725.297
1281.3,725.202
1281.4,725.108
1281.5,725.014
1281.6,724.92
1281.7,724.826
1281.8,724.732
1281.9,724.639
1282,724.545
1282.1,724.451
1282.2,724.357
1282.3,724.264
1282.4,724.17
1282.5,724.076
1282.6,723.983
1282.7,723.889
1282.8,723.796
1282.9,723.703
1283,723.609
1283.1,723.516
1283.2,723.423
1283.3,723.33
1283.4,723.236
1283.5,723.143
1283.6,723.05
1283.7,722.957
1283.8,722.864
1283.9,722.771
1284,722.679
1284.1,722.586
1284.2,722.493
1284.3,722.4
1284.4,722.307
1284.5,722.215
1284.6,722.122
1284.7,722.03
1284.8,721.937
1284.9,721.845
1285,721.752
1285.1,721.66
1285.2,721.568
1285.3,721.475
1285.4,721.383
1285.5,721.291
1285.6,721.199
1285.7,721.107
1285.8,721.015
1285.9,720.923
1286,720.831
1286.1,720.739
1286.2,720.647
1286.3,720.555
1286.4,720.463
1286.5,720.372
1286.6,720.28
1286.7,720.188
1286.8,720.097
1286.9,720.005
1287,719.914
1287.1,719.822
1287.2,719.731
1287.3,719.64
1287.4,719.548
1287.5,719.457
1287.6,719.366
1287.7,719.275
1287.8,719.183
1287.9,719.092
1288,719.001
1288.1,718.91
1288.2,718.819
1288.3,718.728
1288.4,718.638
1288.5,718.547
1288.6,718.456
1288.7,718.365
1288.8,718.275
1288.9,718.184
1289,718.093
1289.1,718.003
1289.2,717.912
1289.3,717.822
1289.4,717.731
1289.5,717.641
1289.6,717.551
1289.7,717.46
1289.8,717.37
1289.9,717.28
1290,717.19
1290.1,717.1
1290.2,717.01
1290.3,716.92
1290.4,716.83
1290.5,716.74
1290.6,716.65
1290.7,716.56
1290.8,716.47
1290.9,716.38
1291,716.291
1291.1,716.201
1291.2,716.111
1291.3,716.022
1291.4,715.932
1291.5,715.843
1291.6,715.753
1291.7,715.664
1291.8,715.575
1291.9,715.485
1292,715.396
1292.1,715.307
1292.2,715.218
1292.3,715.129
1292.4,715.039
1292.5,714.95
1292.6,714.861
1292.7,714.772
1292.8,714.683
1292.9,714.595
1293,714.506
1293.1,714.417
1293.2,714.328
1293.3,714.24
1293.4,714.151
1293.5,714.062
1293.6,713.974
1293.7,713.885
1293.8,713.797
1293.9,713.708
1294,713.62
1294.1,713.531
1294.2,713.443
1294.3,713.355
1294.4,713.267
1294.5,713.178
1294.6,713.09
1294.7,713.002
1294.8,712.914
1294.9,712.826
1295,712.738
1295.1,712.65
1295.2,712.562
1295.3,712.474
1295.4,712.387
1295.5,712.299
1295.6,712.211
1295.7,712.124
1295.8,712.036
1295.9,711.948
1296,711.861
1296.1,711.773
1296.2,711.686
1296.3,711.598
1296.4,711.511
1296.5,711.424
1296.6,711.336
1296.7,711.249
1296.8,711.162
1296.9,711.075
1297,710.988
1297.1,710.901
1297.2,710.813
1297.3,710.727
1297.4,710.64
1297.5,710.553
1297.6,710.466
1297.7,710.379
1297.8,710.292
1297.9,710.205
1298,710.119
1298.1,710.032
1298.2,709.945
1298.3,709.859
1298.4,709.772
1298.5,709.686
1298.6,709.599
1298.7,709.513
1298.8,709.427
1298.9,709.34
1299,709.254
1299.1,709.168
1299.2,709.082
1299.3,708.995
1299.4,708.909
1299.5,708.823
1299.6,708.737
1299.7,708.651
1299.8,708.565
1299.9,708.479
1300,708.393
1300.1,708.308
1300.2,708.222
1300.3,708.136
1300.4,708.05
1300.5,707.965
1300.6,707.879
1300.7,707.793
1300.8,707.708
1300.9,707.622
1301,707.537
1301.1,707.452
1301.2,707.366
1301.3,707.281
1301.4,707.196
1301.5,707.11
1301.6,707.025
1301.7,706.94
1301.8,706.855
1301.9,706.77
1302,706.685
1302.1,706.6
1302.2,706.515
1302.3,706.43
1302.4,706.345
1302.5,706.26
1302.6,706.175
1302.7,706.09
1302.8,706.006
1302.9,705.921
1303,705.836
1303.1,705.752
1303.2,705.667
1303.3,705.583
1303.4,705.498
1303.5,705.414
1303.6,705.329
1303.7,705.245
1303.8,705.161
1303.9,705.076
1304,704.992
1304.1,704.908
1304.2,704.824
1304.3,704.74
1304.4,704.656
1304.5,704.571
1304.6,704.487
1304.7,704.404
1304.8,704.32
1304.9,704.236
1305,704.152
1305.1,704.068
1305.2,703.984
1305.3,703.901
1305.4,703.817
1305.5,703.733
1305.6,703.65
1305.7,703.566
1305.8,703.483
1305.9,703.399
1306,703.316
1306.1,703.232
1306.2,703.149
1306.3,703.066
1306.4,702.982
1306.5,702.899
1306.6,702.816
1306.7,702.733
1306.8,702.65
1306.9,702.566
1307,702.483
1307.1,702.4
1307.2,702.317
1307.3,702.234
1307.4,702.152
1307.5,702.069
1307.6,701.986
1307.7,701.903
1307.8,701.82
1307.9,701.738
1308,701.655
1308.1,701.572
1308.2,701.49
1308.3,701.407
1308.4,701.325
1308.5,701.242
1308.6,701.16
1308.7,701.078
1308.8,700.995
1308.9,700.913
1309,700.831
1309.1,700.748
1309.2,700.666
1309.3,700.584
1309.4,700.502
1309.5,700.42
1309.6,700.338
1309.7,700.256
1309.8,700.174
1309.9,700.092
1310,700.01
1310.1,699.928
1310.2,699.846
1310.3,699.765
1310.4,699.683
1310.5,699.601
1310.6,699.52
1310.7,699.438
1310.8,699.356
1310.9,699.275
1311,699.193
1311.1,699.112
1311.2,699.03
1311.3,698.949
1311.4,698.868
1311.5,698.786
1311.6,698.705
1311.7,698.624
1311.8,698.543
1311.9,698.462
1312,698.38
1312.1,698.299
1312.2,698.218
1312.3,698.137
1312.4,698.056
1312.5,697.975
1312.6,697.895
1312.7,697.814
1312.8,697.733
1312.9,697.652
1313,697.571
1313.1,697.491
1313.2,697.41
1313.3,697.329
1313.4,697.249
1313.5,697.168
1313.6,697.088
1313.7,697.007
1313.8,696.927
1313.9,696.846
1314,696.766
1314.1,696.686
1314.2,696.605
1314.3,696.525
1314.4,696.445
1314.5,696.365
1314.6,696.285
1314.7,696.205
1314.8,696.124
1314.9,696.044
1315,695.964
1315.1,695.885
1315.2,695.805
1315.3,695.725
1315.4,695.645
1315.5,695.565
1315.6,695.485
1315.7,695.406
1315.8,695.326
1315.9,695.246
1316,695.167
1316.1,695.087
1316.2,695.008
1316.3,694.928
1316.4,694.849
1316.5,694.769
1316.6,694.69
1316.7,694.61
1316.8,694.531
1316.9,694.452
1317,694.372
1317.1,694.293
1317.2,694.214
1317.3,694.135
1317.4,694.056
1317.5,693.977
1317.6,693.898
1317.7,693.819
1317.8,693.74
1317.9,693.661
1318,693.582
1318.1,693.503
1318.2,693.424
1318.3,693.346
1318.4,693.267
1318.5,693.188
1318.6,693.109
1318.7,693.031
1318.8,692.952
1318.9,692.874
1319,692.795
1319.1,692.717
1319.2,692.638
1319.3,692.56
1319.4,692.481
1319.5,692.403
1319.6,692.325
1319.7,692.247
1319.8,692.168
1319.9,692.09
1320,692.012
1320.1,691.934
1320.2,691.856
1320.3,691.778
1320.4,691.7
1320.5,691.622
1320.6,691.544
1320.7,691.466
1320.8,691.388
1320.9,691.31
1321,691.232
1321.1,691.155
1321.2,691.077
1321.3,690.999
1321.4,690.921
1321.5,690.844
1321.6,690.766
1321.7,690.689
1321.8,690.611
1321.9,690.534
1322,690.456
1322.1,690.379
1322.2,690.302
1322.3,690.224
1322.4,690.147
1322.5,690.07
1322.6,689.992
1322.7,689.915
1322.8,689.838
1322.9,689.761
1323,689.684
1323.1,689.607
1323.2,689.53
1323.3,689.453
1323.4,689.376
1323.5,689.299
1323.6,689.222
1323.7,689.145
1323.8,689.068
1323.9,688.992
1324,688.915
1324.1,688.838
1324.2,688.761
1324.3,688.685
1324.4,688.608
1324.5,688.532
1324.6,688.455
1324.7,688.379
1324.8,688.302
1324.9,688.226
1325,688.149
1325.1,688.073
1325.2,687.997
1325.3,687.92
1325.4,687.844
1325.5,687.768
1325.6,687.692
1325.7,687.616
1325.8,687.54
1325.9,687.463
1326,687.387
1326.1,687.311
1326.2,687.235
1326.3,687.159
1326.4,687.084
1326.5,687.008
1326.6,686.932
1326.7,686.856
1326.8,686.78
1326.9,686.705
1327,686.629
1327.1,686.553
1327.2,686.478
1327.3,686.402
1327.4,686.326
1327.5,686.251
1327.6,686.175
1327.7,686.1
1327.8,686.025
1327.9,685.949
1328,685.874
1328.1,685.798
1328.2,685.723
1328.3,685.648
1328.4,685.573
1328.5,685.497
1328.6,685.422
1328.7,685.347
1328.8,685.272
1328.9,685.197
1329,685.122
1329.1,685.047
1329.2,684.972
1329.3,684.897
1329.4,684.822
1329.5,684.747
1329.6,684.673
1329.7,684.598
1329.8,684.523
1329.9,684.448
1330,684.374
1330.1,684.299
1330.2,684.225
1330.3,684.15
1330.4,684.075
1330.5,684.001
1330.6,683.926
1330.7,683.852
1330.8,683.778
1330.9,683.703
1331,683.629
1331.1,683.555
1331.2,683.48
1331.3,683.406
1331.4,683.332
1331.5,683.258
1331.6,683.183
1331.7,683.109
1331.8,683.035
1331.9,682.961
1332,682.887
1332.1,682.813
1332.2,682.739
1332.3,682.665
1332.4,682.592
1332.5,682.518
1332.6,682.444
1332.7,682.37
1332.8,682.296
1332.9,682.223
1333,682.149
1333.1,682.075
1333.2,682.002
1333.3,681.928
1333.4,681.855
1333.5,681.781
1333.6,681.708
1333.7,681.634
1333.8,681.561
1333.9,681.487
1334,681.414
1334.1,681.341
1334.2,681.267
1334.3,681.194
1334.4,681.121
1334.5,681.048
1334.6,680.975
1334.7,680.901
1334.8,680.828
1334.9,680.755
1335,680.682
1335.1,680.609
1335.2,680.536
1335.3,680.463
1335.4,680.391
1335.5,680.318
1335.6,680.245
1335.7,680.172
1335.8,680.099
1335.9,680.027
1336,679.954
1336.1,679.881
1336.2,679.809
1336.3,679.736
1336.4,679.663
1336.5,679.591
1336.6,679.518
1336.7,679.446
1336.8,679.373
1336.9,679.301
1337,679.229
1337.1,679.156
1337.2,679.084
1337.3,679.012
1337.4,678.94
1337.5,678.867
1337.6,678.795
1337.7,678.723
1337.8,678.651
1337.9,678.579
1338,678.507
1338.1,678.435
1338.2,678.363
1338.3,678.291
1338.4,678.219
1338.5,678.147
1338.6,678.075
1338.7,678.003
1338.8,677.931
1338.9,677.86
1339,677.788
1339.1,677.716
1339.2,677.645
1339.3,677.573
1339.4,677.501
1339.5,677.43
1339.6,677.358
1339.7,677.287
1339.8,677.215
1339.9,677.144
1340,677.072
1340.1,677.001
1340.2,676.93
1340.3,676.858
1340.4,676.787
1340.5,676.716
1340.6,676.644
1340.7,676.573
1340.8,676.502
1340.9,676.431
1341,676.36
1341.1,676.289
1341.2,676.218
1341.3,676.147
1341.4,676.076
1341.5,676.005
1341.6,675.934
1341.7,675.863
1341.8,675.792
1341.9,675.721
1342,675.651
1342.1,675.58
1342.2,675.509
1342.3,675.438
1342.4,675.368
1342.5,675.297
1342.6,675.226
1342.7,675.156
1342.8,675.085
1342.9,675.015
1343,674.944
1343.1,674.874
1343.2,674.803
1343.3,674.733
1343.4,674.663
1343.5,674.592
1343.6,674.522
1343.7,674.452
1343.8,674.382
1343.9,674.311
1344,674.241
1344.1,674.171
1344.2,674.101
1344.3,674.031
1344.4,673.961
1344.5,673.891
1344.6,673.821
1344.7,673.751
1344.8,673.681
1344.9,673.611
1345,673.541
1345.1,673.471
1345.2,673.401
1345.3,673.332
1345.4,673.262
1345.5,673.192
1345.6,673.123
1345.7,673.053
1345.8,672.983
1345.9,672.914
1346,672.844
1346.1,672.775
1346.2,672.705
1346.3,672.636
1346.4,672.566
1346.5,672.497
1346.6,672.427
1346.7,672.358
1346.8,672.289
1346.9,672.219
1347,672.15
1347.1,672.081
1347.2,672.012
1347.3,671.943
1347.4,671.873
1347.5,671.804
1347.6,671.735
1347.7,671.666
1347.8,671.597
1347.9,671.528
1348,671.459
1348.1,671.39
1348.2,671.321
1348.3,671.253
1348.4,671.184
1348.5,671.115
1348.6,671.046
1348.7,670.977
1348.8,670.909
1348.9,670.84
1349,670.771
1349.1,670.703
1349.2,670.634
1349.3,670.565
1349.4,670.497
1349.5,670.428
1349.6,670.36
1349.7,670.291
1349.8,670.223
1349.9,670.155
1350,670.086
1350.1,670.018
1350.2,669.95
1350.3,669.881
1350.4,669.813
1350.5,669.745
1350.6,669.677
1350.7,669.609
1350.8,669.54
1350.9,669.472
1351,669.404
1351.1,669.336
1351.2,669.268
1351.3,669.2
1351.4,669.132
1351.5,669.064
1351.6,668.996
1351.7,668.929
1351.8,668.861
1351.9,668.793
1352,668.725
1352.1,668.657
1352.2,668.59
1352.3,668.522
1352.4,668.454
1352.5,668.387
1352.6,668.319
1352.7,668.252
1352.8,668.184
1352.9,668.117
1353,668.049
1353.1,667.982
1353.2,667.914
1353.3,667.847
1353.4,667.779
1353.5,667.712
1353.6,667.645
1353.7,667.577
1353.8,667.51
1353.9,667.443
1354,667.376
1354.1,667.309
1354.2,667.242
1354.3,667.174
1354.4,667.107
1354.5,667.04
1354.6,666.973
1354.7,666.906
1354.8,666.839
1354.9,666.772
1355,666.705
1355.1,666.639
1355.2,666.572
1355.3,666.505
1355.4,666.438
1355.5,666.371
1355.6,666.305
1355.7,666.238
1355.8,666.171
1355.9,666.105
1356,666.038
1356.1,665.971
1356.2,665.905
1356.3,665.838
1356.4,665.772
1356.5,665.705
1356.6,665.639
1356.7,665.572
1356.8,665.506
1356.9,665.44
1357,665.373
1357.1,665.307
1357.2,665.241
1357.3,665.174
1357.4,665.108
1357.5,665.042
1357.6,664.976
1357.7,664.91
1357.8,664.844
1357.9,664.778
1358,664.711
1358.1,664.645
1358.2,664.579
1358.3,664.513
1358.4,664.448
1358.5,664.382
1358.6,664.316
1358.7,664.25
1358.8,664.184
1358.9,664.118
1359,664.052
1359.1,663.987
1359.2,663.921
1359.3,663.855
1359.4,663.79
1359.5,663.724
1359.6,663.658
1359.7,663.593
1359.8,663.527
1359.9,663.462
1360,663.396
1360.1,663.331
1360.2,663.265
1360.3,663.2
1360.4,663.135
1360.5,663.069
1360.6,663.004
1360.7,662.939
1360.8,662.873
1360.9,662.808
1361,662.743
1361.1,662.678
1361.2,662.612
1361.3,662.547
1361.4,662.482
1361.5,662.417
1361.6,662.352
1361.7,662.287
1361.8,662.222
1361.9,662.157
1362,662.092
1362.1,662.027
1362.2,661.962
1362.3,661.898
1362.4,661.833
1362.5,661.768
1362.6,661.703
1362.7,661.638
1362.8,661.574
1362.9,661.509
1363,661.444
1363.1,661.38
1363.2,661.315
1363.3,661.25
1363.4,661.186
1363.5,661.121
1363.6,661.057
1363.7,660.992
1363.8,660.928
1363.9,660.863
1364,660.799
1364.1,660.735
1364.2,660.67
1364.3,660.606
1364.4,660.542
1364.5,660.477
1364.6,660.413
1364.7,660.349
1364.8,660.285
1364.9,660.221
1365,660.157
1365.1,660.092
1365.2,660.028
1365.3,659.964
1365.4,659.9
1365.5,659.836
1365.6,659.772
1365.7,659.708
1365.8,659.645
1365.9,659.581
1366,659.517
1366.1,659.453
1366.2,659.389
1366.3,659.325
1366.4,659.262
1366.5,659.198
1366.6,659.134
1366.7,659.071
1366.8,659.007
1366.9,658.943
1367,658.88
1367.1,658.816
1367.2,658.753
1367.3,658.689
1367.4,658.626
1367.5,658.562
1367.6,658.499
1367.7,658.435
1367.8,658.372
1367.9,658.309
1368,658.245
1368.1,658.182
1368.2,658.119
1368.3,658.055
1368.4,657.992
1368.5,657.929
1368.6,657.866
1368.7,657.803
1368.8,657.74
1368.9,657.676
1369,657.613
1369.1,657.55
1369.2,657.487
1369.3,657.424
1369.4,657.361
1369.5,657.299
1369.6,657.236
1369.7,657.173
1369.8,657.11
1369.9,657.047
1370,656.984
1370.1,656.921
1370.2,656.859
1370.3,656.796
1370.4,656.733
1370.5,656.671
1370.6,656.608
1370.7,656.545
1370.8,656.483
1370.9,656.42
1371,656.358
1371.1,656.295
1371.2,656.233
1371.3,656.17
1371.4,656.108
1371.5,656.045
1371.6,655.983
1371.7,655.921
1371.8,655.858
1371.9,655.796
1372,655.734
1372.1,655.671
1372.2,655.609
1372.3,655.547
1372.4,655.485
1372.5,655.423
1372.6,655.361
1372.7,655.299
1372.8,655.236
1372.9,655.174
1373,655.112
1373.1,655.05
1373.2,654.988
1373.3,654.926
1373.4,654.865
1373.5,654.803
1373.6,654.741
1373.7,654.679
1373.8,654.617
1373.9,654.555
1374,654.494
1374.1,654.432
1374.2,654.37
1374.3,654.308
1374.4,654.247
1374.5,654.185
1374.6,654.123
1374.7,654.062
1374.8,654
1374.9,653.939
1375,653.877
1375.1,653.816
1375.2,653.754
1375.3,653.693
1375.4,653.632
1375.5,653.57
1375.6,653.509
1375.7,653.447
1375.8,653.386
1375.9,653.325
1376,653.264
1376.1,653.202
1376.2,653.141
1376.3,653.08
1376.4,653.019
1376.5,652.958
1376.6,652.897
1376.7,652.835
1376.8,652.774
1376.9,652.713
1377,652.652
1377.1,652.591
1377.2,652.53
1377.3,652.47
1377.4,652.409
1377.5,652.348
1377.6,652.287
1377.7,652.226
1377.8,652.165
1377.9,652.104
1378,652.044
1378.1,651.983
1378.2,651.922
1378.3,651.862
1378.4,651.801
1378.5,651.74
1378.6,651.68
1378.7,651.619
1378.8,651.559
1378.9,651.498
1379,651.437
1379.1,651.377
1379.2,651.317
1379.3,651.256
1379.4,651.196
1379.5,651.135
1379.6,651.075
1379.7,651.015
1379.8,650.954
1379.9,650.894
1380,650.834
1380.1,650.774
1380.2,650.713
1380.3,650.653
1380.4,650.593
1380.5,650.533
1380.6,650.473
1380.7,650.413
1380.8,650.353
1380.9,650.293
1381,650.232
1381.1,650.172
1381.2,650.113
1381.3,650.053
1381.4,649.993
1381.5,649.933
1381.6,649.873
1381.7,649.813
1381.8,649.753
1381.9,649.693
1382,649.634
1382.1,649.574
1382.2,649.514
1382.3,649.455
1382.4,649.395
1382.5,649.335
1382.6,649.276
1382.7,649.216
1382.8,649.156
1382.9,649.097
1383,649.037
1383.1,648.978
1383.2,648.918
1383.3,648.859
1383.4,648.799
1383.5,648.74
1383.6,648.681
1383.7,648.621
1383.8,648.562
1383.9,648.503
1384,648.443
1384.1,648.384
1384.2,648.325
1384.3,648.266
1384.4,648.206
1384.5,648.147
1384.6,648.088
1384.7,648.029
1384.8,647.97
1384.9,647.911
1385,647.852
1385.1,647.793
1385.2,647.734
1385.3,647.675
1385.4,647.616
1385.5,647.557
1385.6,647.498
1385.7,647.439
1385.8,647.38
1385.9,647.321
1386,647.263
1386.1,647.204
1386.2,647.145
1386.3,647.086
1386.4,647.028
1386.5,646.969
1386.6,646.91
1386.7,646.852
1386.8,646.793
1386.9,646.734
1387,646.676
1387.1,646.617
1387.2,646.559
1387.3,646.5
1387.4,646.442
1387.5,646.383
1387.6,646.325
1387.7,646.266
1387.8,646.208
1387.9,646.15
1388,646.091
1388.1,646.033
1388.2,645.975
1388.3,645.916
1388.4,645.858
1388.5,645.8
1388.6,645.742
1388.7,645.684
1388.8,645.626
1388.9,645.567
1389,645.509
1389.1,645.451
1389.2,645.393
1389.3,645.335
1389.4,645.277
1389.5,645.219
1389.6,645.161
1389.7,645.103
1389.8,645.045
1389.9,644.987
1390,644.93
1390.1,644.872
1390.2,644.814
1390.3,644.756
1390.4,644.698
1390.5,644.641
1390.6,644.583
1390.7,644.525
1390.8,644.467
1390.9,644.41
1391,644.352
1391.1,644.294
1391.2,644.237
1391.3,644.179
1391.4,644.122
1391.5,644.064
1391.6,644.007
1391.7,643.949
1391.8,643.892
1391.9,643.834
1392,643.777
1392.1,643.72
1392.2,643.662
1392.3,643.605
1392.4,643.548
1392.5,643.49
1392.6,643.433
1392.7,643.376
1392.8,643.319
1392.9,643.261
1393,643.204
1393.1,643.147
1393.2,643.09
1393.3,643.033
1393.4,642.976
1393.5,642.919
1393.6,642.862
1393.7,642.805
1393.8,642.748
1393.9,642.691
1394,642.634
1394.1,642.577
1394.2,642.52
1394.3,642.463
1394.4,642.406
1394.5,642.349
1394.6,642.292
1394.7,642.236
1394.8,642.179
1394.9,642.122
1395,642.065
1395.1,642.009
1395.2,641.952
1395.3,641.895
1395.4,641.839
1395.5,641.782
1395.6,641.725
1395.7,641.669
1395.8,641.612
1395.9,641.556
1396,641.499
1396.1,641.443
1396.2,641.386
1396.3,641.33
1396.4,641.274
1396.5,641.217
1396.6,641.161
1396.7,641.104
1396.8,641.048
1396.9,640.992
1397,640.936
1397.1,640.879
1397.2,640.823
1397.3,640.767
1397.4,640.711
1397.5,640.654
1397.6,640.598
1397.7,640.542
1397.8,640.486
1397.9,640.43
1398,640.374
1398.1,640.318
1398.2,640.262
1398.3,640.206
1398.4,640.15
1398.5,640.094
1398.6,640.038
1398.7,639.982
1398.8,639.926
1398.9,639.87
1399,639.815
1399.1,639.759
1399.2,639.703
1399.3,639.647
1399.4,639.591
1399.5,639.536
1399.6,639.48
1399.7,639.424
1399.8,639.369
1399.9,639.313
1400,639.257
1400.1,639.202
1400.2,639.146
1400.3,639.091
1400.4,639.035
1400.5,638.98
1400.6,638.924
1400.7,638.869
1400.8,638.813
1400.9,638.758
1401,638.703
1401.1,638.647
1401.2,638.592
1401.3,638.536
1401.4,638.481
1401.5,638.426
1401.6,638.371
1401.7,638.315
1401.8,638.26
1401.9,638.205
1402,638.15
1402.1,638.095
1402.2,638.039
1402.3,637.984
1402.4,637.929
1402.5,637.874
1402.6,637.819
1402.7,637.764
1402.8,637.709
1402.9,637.654
1403,637.599
1403.1,637.544
1403.2,637.489
1403.3,637.434
1403.4,637.38
1403.5,637.325
1403.6,637.27
1403.7,637.215
1403.8,637.16
1403.9,637.105
1404,637.051
1404.1,636.996
1404.2,636.941
1404.3,636.887
1404.4,636.832
1404.5,636.777
1404.6,636.723
1404.7,636.668
1404.8,636.614
1404.9,636.559
1405,636.504
1405.1,636.45
1405.2,636.395
1405.3,636.341
1405.4,636.286
1405.5,636.232
1405.6,636.178
1405.7,636.123
1405.8,636.069
1405.9,636.015
1406,635.96
1406.1,635.906
1406.2,635.852
1406.3,635.797
1406.4,635.743
1406.5,635.689
1406.6,635.635
1406.7,635.581
1406.8,635.526
1406.9,635.472
1407,635.418
1407.1,635.364
1407.2,635.31
1407.3,635.256
1407.4,635.202
1407.5,635.148
1407.6,635.094
1407.7,635.04
1407.8,634.986
1407.9,634.932
1408,634.878
1408.1,634.824
1408.2,634.77
1408.3,634.717
1408.4,634.663
1408.5,634.609
1408.6,634.555
1408.7,634.501
1408.8,634.448
1408.9,634.394
1409,634.34
1409.1,634.287
1409.2,634.233
1409.3,634.179
1409.4,634.126
1409.5,634.072
1409.6,634.019
1409.7,633.965
1409.8,633.912
1409.9,633.858
1410,633.805
1410.1,633.751
1410.2,633.698
1410.3,633.644
1410.4,633.591
1410.5,633.537
1410.6,633.484
1410.7,633.431
1410.8,633.377
1410.9,633.324
1411,633.271
1411.1,633.218
1411.2,633.164
1411.3,633.111
1411.4,633.058
1411.5,633.005
1411.6,632.952
1411.7,632.898
1411.8,632.845
1411.9,632.792
1412,632.739
1412.1,632.686
1412.2,632.633
1412.3,632.58
1412.4,632.527
1412.5,632.474
1412.6,632.421
1412.7,632.368
1412.8,632.315
1412.9,632.262
1413,632.21
1413.1,632.157
1413.2,632.104
1413.3,632.051
1413.4,631.998
1413.5,631.946
1413.6,631.893
1413.7,631.84
1413.8,631.787
1413.9,631.735
1414,631.682
1414.1,631.629
1414.2,631.577
1414.3,631.524
1414.4,631.472
1414.5,631.419
1414.6,631.366
1414.7,631.314
1414.8,631.261
1414.9,631.209
1415,631.156
1415.1,631.104
1415.2,631.052
1415.3,630.999
1415.4,630.947
1415.5,630.894
1415.6,630.842
1415.7,630.79
1415.8,630.738
1415.9,630.685
1416,630.633
1416.1,630.581
1416.2,630.528
1416.3,630.476
1416.4,630.424
1416.5,630.372
1416.6,630.32
1416.7,630.268
1416.8,630.216
1416.9,630.163
1417,630.111
1417.1,630.059
1417.2,630.007
1417.3,629.955
1417.4,629.903
1417.5,629.851
1417.6,629.799
1417.7,629.748
1417.8,629.696
1417.9,629.644
1418,629.592
1418.1,629.54
1418.2,629.488
1418.3,629.436
1418.4,629.385
1418.5,629.333
1418.6,629.281
1418.7,629.229
1418.8,629.178
1418.9,629.126
1419,629.074
1419.1,629.023
1419.2,628.971
1419.3,628.919
1419.4,628.868
1419.5,628.816
1419.6,628.765
1419.7,628.713
1419.8,628.662
1419.9,628.61
1420,628.559
1420.1,628.507
1420.2,628.456
1420.3,628.404
1420.4,628.353
1420.5,628.302
1420.6,628.25
1420.7,628.199
1420.8,628.148
1420.9,628.096
1421,628.045
1421.1,627.994
1421.2,627.943
1421.3,627.891
1421.4,627.84
1421.5,627.789
1421.6,627.738
1421.7,627.687
1421.8,627.636
1421.9,627.585
1422,627.533
1422.1,627.482
1422.2,627.431
1422.3,627.38
1422.4,627.329
1422.5,627.278
1422.6,627.227
1422.7,627.176
1422.8,627.125
1422.9,627.075
1423,627.024
1423.1,626.973
1423.2,626.922
1423.3,626.871
1423.4,626.82
1423.5,626.77
1423.6,626.719
1423.7,626.668
1423.8,626.617
1423.9,626.567
1424,626.516
1424.1,626.465
1424.2,626.415
1424.3,626.364
1424.4,626.313
1424.5,626.263
1424.6,626.212
1424.7,626.162
1424.8,626.111
1424.9,626.06
1425,626.01
1425.1,625.959
1425.2,625.909
1425.3,625.859
1425.4,625.808
1425.5,625.758
1425.6,625.707
1425.7,625.657
1425.8,625.607
1425.9,625.556
1426,625.506
1426.1,625.456
1426.2,625.405
1426.3,625.355
1426.4,625.305
1426.5,625.255
1426.6,625.204
1426.7,625.154
1426.8,625.104
1426.9,625.054
1427,625.004
1427.1,624.954
1427.2,624.904
1427.3,624.854
1427.4,624.803
1427.5,624.753
1427.6,624.703
1427.7,624.653
1427.8,624.603
1427.9,624.554
1428,624.504
1428.1,624.454
1428.2,624.404
1428.3,624.354
1428.4,624.304
1428.5,624.254
1428.6,624.204
1428.7,624.155
1428.8,624.105
1428.9,624.055
1429,624.005
1429.1,623.956
1429.2,623.906
1429.3,623.856
1429.4,623.806
1429.5,623.757
1429.6,623.707
1429.7,623.657
1429.8,623.608
1429.9,623.558
1430,623.509
1430.1,623.459
1430.2,623.41
1430.3,623.36
1430.4,623.311
1430.5,623.261
1430.6,623.212
1430.7,623.162
1430.8,623.113
1430.9,623.063
1431,623.014
1431.1,622.965
1431.2,622.915
1431.3,622.866
1431.4,622.817
1431.5,622.767
1431.6,622.718
1431.7,622.669
1431.8,622.62
1431.9,622.571
1432,622.521
1432.1,622.472
1432.2,622.423
1432.3,622.374
1432.4,622.325
1432.5,622.276
1432.6,622.227
1432.7,622.177
1432.8,622.128
1432.9,622.079
1433,622.03
1433.1,621.981
1433.2,621.932
1433.3,621.883
1433.4,621.834
1433.5,621.786
1433.6,621.737
1433.7,621.688
1433.8,621.639
1433.9,621.59
1434,621.541
1434.1,621.492
1434.2,621.444
1434.3,621.395
1434.4,621.346
1434.5,621.297
1434.6,621.249
1434.7,621.2
1434.8,621.151
1434.9,621.103
1435,621.054
1435.1,621.005
1435.2,620.957
1435.3,620.908
1435.4,620.859
1435.5,620.811
1435.6,620.762
1435.7,620.714
1435.8,620.665
1435.9,620.617
1436,620.568
1436.1,620.52
1436.2,620.471
1436.3,620.423
1436.4,620.375
1436.5,620.326
1436.6,620.278
1436.7,620.23
1436.8,620.181
1436.9,620.133
1437,620.085
1437.1,620.036
1437.2,619.988
1437.3,619.94
1437.4,619.892
1437.5,619.843
1437.6,619.795
1437.7,619.747
1437.8,619.699
1437.9,619.651
1438,619.603
1438.1,619.555
1438.2,619.507
1438.3,619.458
1438.4,619.41
1438.5,619.362
1438.6,619.314
1438.7,619.266
1438.8,619.218
1438.9,619.171
1439,619.123
1439.1,619.075
1439.2,619.027
1439.3,618.979
1439.4,618.931
1439.5,618.883
1439.6,618.835
1439.7,618.788
1439.8,618.74
1439.9,618.692
1440,618.644
1440.1,618.596
1440.2,618.549
1440.3,618.501
1440.4,618.453
1440.5,618.406
1440.6,618.358
1440.7,618.31
1440.8,618.263
1440.9,618.215
1441,618.168
1441.1,618.12
1441.2,618.072
1441.3,618.025
1441.4,617.977
1441.5,617.93
1441.6,617.882
1441.7,617.835
1441.8,617.787
1441.9,617.74
1442,617.693
1442.1,617.645
1442.2,617.598
1442.3,617.551
1442.4,617.503
1442.5,617.456
1442.6,617.409
1442.7,617.361
1442.8,617.314
1442.9,617.267
1443,617.219
1443.1,617.172
1443.2,617.125
1443.3,617.078
1443.4,617.031
1443.5,616.984
1443.6,616.936
1443.7,616.889
1443.8,616.842
1443.9,616.795
1444,616.748
1444.1,616.701
1444.2,616.654
1444.3,616.607
1444.4,616.56
1444.5,616.513
1444.6,616.466
1444.7,616.419
1444.8,616.372
1444.9,616.325
1445,616.278
1445.1,616.231
1445.2,616.185
1445.3,616.138
1445.4,616.091
1445.5,616.044
1445.6,615.997
1445.7,615.951
1445.8,615.904
1445.9,615.857
1446,615.81
1446.1,615.764
1446.2,615.717
1446.3,615.67
1446.4,615.624
1446.5,615.577
1446.6,615.53
1446.7,615.484
1446.8,615.437
1446.9,615.391
1447,615.344
1447.1,615.298
1447.2,615.251
1447.3,615.205
1447.4,615.158
1447.5,615.112
1447.6,615.065
1447.7,615.019
1447.8,614.972
1447.9,614.926
1448,614.879
1448.1,614.833
1448.2,614.787
1448.3,614.74
1448.4,614.694
1448.5,614.648
1448.6,614.602
1448.7,614.555
1448.8,614.509
1448.9,614.463
1449,614.417
1449.1,614.37
1449.2,614.324
1449.3,614.278
1449.4,614.232
1449.5,614.186
1449.6,614.14
1449.7,614.094
1449.8,614.047
1449.9,614.001
1450,613.955
1450.1,613.909
1450.2,613.863
1450.3,613.817
1450.4,613.771
1450.5,613.725
1450.6,613.679
1450.7,613.633
1450.8,613.588
1450.9,613.542
1451,613.496
1451.1,613.45
1451.2,613.404
1451.3,613.358
1451.4,613.312
1451.5,613.267
1451.6,613.221
1451.7,613.175
1451.8,613.129
1451.9,613.084
1452,613.038
1452.1,612.992
1452.2,612.946
1452.3,612.901
1452.4,612.855
1452.5,612.809
1452.6,612.764
1452.7,612.718
1452.8,612.673
1452.9,612.627
1453,612.582
1453.1,612.536
1453.2,612.49
1453.3,612.445
1453.4,612.399
1453.5,612.354
1453.6,612.309
1453.7,612.263
1453.8,612.218
1453.9,612.172
1454,612.127
1454.1,612.082
1454.2,612.036
1454.3,611.991
1454.4,611.946
1454.5,611.9
1454.6,611.855
1454.7,611.81
1454.8,611.764
1454.9,611.719
1455,611.674
1455.1,611.629
1455.2,611.584
1455.3,611.538
1455.4,611.493
1455.5,611.448
1455.6,611.403
1455.7,611.358
1455.8,611.313
1455.9,611.268
1456,611.223
1456.1,611.177
1456.2,611.132
1456.3,611.087
1456.4,611.042
1456.5,610.997
1456.6,610.952
1456.7,610.908
1456.8,610.863
1456.9,610.818
1457,610.773
1457.1,610.728
1457.2,610.683
1457.3,610.638
1457.4,610.593
1457.5,610.549
1457.6,610.504
1457.7,610.459
1457.8,610.414
1457.9,610.369
1458,610.325
1458.1,610.28
1458.2,610.235
1458.3,610.191
1458.4,610.146
1458.5,610.101
1458.6,610.057
1458.7,610.012
1458.8,609.967
1458.9,609.923
1459,609.878
1459.1,609.834
1459.2,609.789
1459.3,609.744
1459.4,609.7
1459.5,609.655
1459.6,609.611
1459.7,609.566
1459.8,609.522
1459.9,609.478
1460,609.433
1460.1,609.389
1460.2,609.344
1460.3,609.3
1460.4,609.256
1460.5,609.211
1460.6,609.167
1460.7,609.123
1460.8,609.078
1460.9,609.034
1461,608.99
1461.1,608.945
1461.2,608.901
1461.3,608.857
1461.4,608.813
1461.5,608.769
1461.6,608.724
1461.7,608.68
1461.8,608.636
1461.9,608.592
1462,608.548
1462.1,608.504
1462.2,608.46
1462.3,608.416
1462.4,608.372
1462.5,608.328
1462.6,608.284
1462.7,608.24
1462.8,608.196
1462.9,608.152
1463,608.108
1463.1,608.064
1463.2,608.02
1463.3,607.976
1463.4,607.932
1463.5,607.888
1463.6,607.844
1463.7,607.8
1463.8,607.757
1463.9,607.713
1464,607.669
1464.1,607.625
1464.2,607.581
1464.3,607.538
1464.4,607.494
1464.5,607.45
1464.6,607.407
1464.7,607.363
1464.8,607.319
1464.9,607.276
1465,607.232
1465.1,607.188
1465.2,607.145
1465.3,607.101
1465.4,607.057
1465.5,607.014
1465.6,606.97
1465.7,606.927
1465.8,606.883
1465.9,606.84
1466,606.796
1466.1,606.753
1466.2,606.709
1466.3,606.666
1466.4,606.622
1466.5,606.579
1466.6,606.536
1466.7,606.492
1466.8,606.449
1466.9,606.406
1467,606.362
1467.1,606.319
1467.2,606.276
1467.3,606.232
1467.4,606.189
1467.5,606.146
1467.6,606.103
1467.7,606.059
1467.8,606.016
1467.9,605.973
1468,605.93
1468.1,605.887
1468.2,605.843
1468.3,605.8
1468.4,605.757
1468.5,605.714
1468.6,605.671
1468.7,605.628
1468.8,605.585
1468.9,605.542
1469,605.499
1469.1,605.456
1469.2,605.413
1469.3,605.37
1469.4,605.327
1469.5,605.284
1469.6,605.241
1469.7,605.198
1469.8,605.155
1469.9,605.112
1470,605.069
1470.1,605.026
1470.2,604.983
1470.3,604.941
1470.4,604.898
1470.5,604.855
1470.6,604.812
1470.7,604.769
1470.8,604.727
1470.9,604.684
1471,604.641
1471.1,604.598
1471.2,604.556
1471.3,604.513
1471.4,604.47
1471.5,604.428
1471.6,604.385
1471.7,604.342
1471.8,604.3
1471.9,604.257
1472,604.215
1472.1,604.172
1472.2,604.13
1472.3,604.087
1472.4,604.044
1472.5,604.002
1472.6,603.959
1472.7,603.917
1472.8,603.875
1472.9,603.832
1473,603.79
1473.1,603.747
1473.2,603.705
1473.3,603.662
1473.4,603.62
1473.5,603.578
1473.6,603.535
1473.7,603.493
1473.8,603.451
1473.9,603.408
1474,603.366
1474.1,603.324
1474.2,603.282
1474.3,603.239
1474.4,603.197
1474.5,603.155
1474.6,603.113
1474.7,603.071
1474.8,603.028
1474.9,602.986
1475,602.944
1475.1,602.902
1475.2,602.86
1475.3,602.818
1475.4,602.776
1475.5,602.734
1475.6,602.692
1475.7,602.649
1475.8,602.607
1475.9,602.565
1476,602.523
1476.1,602.481
1476.2,602.439
1476.3,602.398
1476.4,602.356
1476.5,602.314
1476.6,602.272
1476.7,602.23
1476.8,602.188
1476.9,602.146
1477,602.104
1477.1,602.062
1477.2,602.021
1477.3,601.979
1477.4,601.937
1477.5,601.895
1477.6,601.854
1477.7,601.812
1477.8,601.77
1477.9,601.728
1478,601.687
1478.1,601.645
1478.2,601.603
1478.3,601.562
1478.4,601.52
1478.5,601.478
1478.6,601.437
1478.7,601.395
1478.8,601.354
1478.9,601.312
1479,601.27
1479.1,601.229
1479.2,601.187
1479.3,601.146
1479.4,601.104
1479.5,601.063
1479.6,601.021
1479.7,600.98
1479.8,600.938
1479.9,600.897
1480,600.856
1480.1,600.814
1480.2,600.773
1480.3,600.731
1480.4,600.69
1480.5,600.649
1480.6,600.607
1480.7,600.566
1480.8,600.525
1480.9,600.483
1481,600.442
1481.1,600.401
1481.2,600.36
1481.3,600.318
1481.4,600.277
1481.5,600.236
1481.6,600.195
1481.7,600.154
1481.8,600.113
1481.9,600.071
1482,600.03
1482.1,599.989
1482.2,599.948
1482.3,599.907
1482.4,599.866
1482.5,599.825
1482.6,599.784
1482.7,599.743
1482.8,599.702
1482.9,599.661
1483,599.62
1483.1,599.579
1483.2,599.538
1483.3,599.497
1483.4,599.456
1483.5,599.415
1483.6,599.374
1483.7,599.333
1483.8,599.292
1483.9,599.251
1484,599.211
1484.1,599.17
1484.2,599.129
1484.3,599.088
1484.4,599.047
1484.5,599.007
1484.6,598.966
1484.7,598.925
1484.8,598.884
1484.9,598.844
1485,598.803
1485.1,598.762
1485.2,598.721
1485.3,598.681
1485.4,598.64
1485.5,598.599
1485.6,598.559
1485.7,598.518
1485.8,598.478
1485.9,598.437
1486,598.396
1486.1,598.356
1486.2,598.315
1486.3,598.275
1486.4,598.234
1486.5,598.194
1486.6,598.153
1486.7,598.113
1486.8,598.072
1486.9,598.032
1487,597.992
1487.1,597.951
1487.2,597.911
1487.3,597.87
1487.4,597.83
1487.5,597.79
1487.6,597.749
1487.7,597.709
1487.8,597.669
1487.9,597.628
1488,597.588
1488.1,597.548
1488.2,597.507
1488.3,597.467
1488.4,597.427
1488.5,597.387
1488.6,597.346
1488.7,597.306
1488.8,597.266
1488.9,597.226
1489,597.186
1489.1,597.146
1489.2,597.105
1489.3,597.065
1489.4,597.025
1489.5,596.985
1489.6,596.945
1489.7,596.905
1489.8,596.865
1489.9,596.825
1490,596.785
1490.1,596.745
1490.2,596.705
1490.3,596.665
1490.4,596.625
1490.5,596.585
1490.6,596.545
1490.7,596.505
1490.8,596.465
1490.9,596.425
1491,596.385
1491.1,596.346
1491.2,596.306
1491.3,596.266
1491.4,596.226
1491.5,596.186
1491.6,596.146
1491.7,596.107
1491.8,596.067
1491.9,596.027
1492,595.987
1492.1,595.948
1492.2,595.908
1492.3,595.868
1492.4,595.828
1492.5,595.789
1492.6,595.749
1492.7,595.709
1492.8,595.67
1492.9,595.63
1493,595.591
1493.1,595.551
1493.2,595.511
1493.3,595.472
1493.4,595.432
1493.5,595.393
1493.6,595.353
1493.7,595.314
1493.8,595.274
1493.9,595.235
1494,595.195
1494.1,595.156
1494.2,595.116
1494.3,595.077
1494.4,595.037
1494.5,594.998
1494.6,594.959
1494.7,594.919
1494.8,594.88
1494.9,594.84
1495,594.801
1495.1,594.762
1495.2,594.722
1495.3,594.683
1495.4,594.644
1495.5,594.605
1495.6,594.565
1495.7,594.526
1495.8,594.487
1495.9,594.448
1496,594.408
1496.1,594.369
1496.2,594.33
1496.3,594.291
1496.4,594.252
1496.5,594.212
1496.6,594.173
1496.7,594.134
1496.8,594.095
1496.9,594.056
1497,594.017
1497.1,593.978
1497.2,593.939
1497.3,593.9
1497.4,593.861
1497.5,593.822
1497.6,593.783
1497.7,593.744
1497.8,593.705
1497.9,593.666
1498,593.627
1498.1,593.588
1498.2,593.549
1498.3,593.51
1498.4,593.471
1498.5,593.432
1498.6,593.393
1498.7,593.354
1498.8,593.316
1498.9,593.277
1499,593.238
1499.1,593.199
1499.2,593.16
1499.3,593.122
1499.4,593.083
1499.5,593.044
1499.6,593.005
1499.7,592.967
1499.8,592.928
1499.9,592.889
1500,592.85
1500.1,592.812
1500.2,592.773
1500.3,592.734
1500.4,592.696
1500.5,592.657
1500.6,592.619
1500.7,592.58
1500.8,592.541
1500.9,592.503
1501,592.464
1501.1,592.426
1501.2,592.387
1501.3,592.349
1501.4,592.31
1501.5,592.272
1501.6,592.233
1501.7,592.195
1501.8,592.156
1501.9,592.118
1502,592.079
1502.1,592.041
1502.2,592.002
1502.3,591.964
1502.4,591.926
1502.5,591.887
1502.6,591.849
1502.7,591.811
1502.8,591.772
1502.9,591.734
1503,591.696
1503.1,591.657
1503.2,591.619
1503.3,591.581
1503.4,591.543
1503.5,591.504
1503.6,591.466
1503.7,591.428
1503.8,591.39
1503.9,591.351
1504,591.313
1504.1,591.275
1504.2,591.237
1504.3,591.199
1504.4,591.161
1504.5,591.123
1504.6,591.084
1504.7,591.046
1504.8,591.008
1504.9,590.97
1505,590.932
1505.1,590.894
1505.2,590.856
1505.3,590.818
1505.4,590.78
1505.5,590.742
1505.6,590.704
1505.7,590.666
1505.8,590.628
1505.9,590.59
1506,590.552
1506.1,590.514
1506.2,590.476
1506.3,590.439
1506.4,590.401
1506.5,590.363
1506.6,590.325
1506.7,590.287
1506.8,590.249
1506.9,590.212
1507,590.174
1507.1,590.136
1507.2,590.098
1507.3,590.06
1507.4,590.023
1507.5,589.985
1507.6,589.947
1507.7,589.909
1507.8,589.872
1507.9,589.834
1508,589.796
1508.1,589.759
1508.2,589.721
1508.3,589.683
1508.4,589.646
1508.5,589.608
1508.6,589.571
1508.7,589.533
1508.8,589.495
1508.9,589.458
1509,589.42
1509.1,589.383
1509.2,589.345
1509.3,589.308
1509.4,589.27
1509.5,589.233
1509.6,589.195
1509.7,589.158
1509.8,589.12
1509.9,589.083
1510,589.045
1510.1,589.008
1510.2,588.971
1510.3,588.933
1510.4,588.896
1510.5,588.859
1510.6,588.821
1510.7,588.784
1510.8,588.747
1510.9,588.709
1511,588.672
1511.1,588.635
1511.2,588.597
1511.3,588.56
1511.4,588.523
1511.5,588.486
1511.6,588.448
1511.7,588.411
1511.8,588.374
1511.9,588.337
1512,588.3
1512.1,588.262
1512.2,588.225
1512.3,588.188
1512.4,588.151
1512.5,588.114
1512.6,588.077
1512.7,588.04
1512.8,588.003
1512.9,587.965
1513,587.928
1513.1,587.891
1513.2,587.854
1513.3,587.817
1513.4,587.78
1513.5,587.743
1513.6,587.706
1513.7,587.669
1513.8,587.632
1513.9,587.595
1514,587.558
1514.1,587.522
1514.2,587.485
1514.3,587.448
1514.4,587.411
1514.5,587.374
1514.6,587.337
1514.7,587.3
1514.8,587.263
1514.9,587.227
1515,587.19
1515.1,587.153
1515.2,587.116
1515.3,587.079
1515.4,587.043
1515.5,587.006
1515.6,586.969
1515.7,586.932
1515.8,586.896
1515.9,586.859
1516,586.822
1516.1,586.786
1516.2,586.749
1516.3,586.712
1516.4,586.676
1516.5,586.639
1516.6,586.602
1516.7,586.566
1516.8,586.529
1516.9,586.492
1517,586.456
1517.1,586.419
1517.2,586.383
1517.3,586.346
1517.4,586.31
1517.5,586.273
1517.6,586.237
1517.7,586.2
1517.8,586.164
1517.9,586.127
1518,586.091
1518.1,586.054
1518.2,586.018
1518.3,585.981
1518.4,585.945
1518.5,585.909
1518.6,585.872
1518.7,585.836
1518.8,585.8
1518.9,585.763
1519,585.727
1519.1,585.691
1519.2,585.654
1519.3,585.618
1519.4,585.582
1519.5,585.545
1519.6,585.509
1519.7,585.473
1519.8,585.437
1519.9,585.4
1520,585.364
1520.1,585.328
1520.2,585.292
1520.3,585.256
1520.4,585.219
1520.5,585.183
1520.6,585.147
1520.7,585.111
1520.8,585.075
1520.9,585.039
1521,585.003
1521.1,584.966
1521.2,584.93
1521.3,584.894
1521.4,584.858
1521.5,584.822
1521.6,584.786
1521.7,584.75
1521.8,584.714
1521.9,584.678
1522,584.642
1522.1,584.606
1522.2,584.57
1522.3,584.534
1522.4,584.498
1522.5,584.462
1522.6,584.427
1522.7,584.391
1522.8,584.355
1522.9,584.319
1523,584.283
1523.1,584.247
1523.2,584.211
1523.3,584.175
1523.4,584.14
1523.5,584.104
1523.6,584.068
1523.7,584.032
1523.8,583.996
1523.9,583.961
1524,583.925
1524.1,583.889
1524.2,583.853
1524.3,583.818
1524.4,583.782
1524.5,583.746
1524.6,583.711
1524.7,583.675
1524.8,583.639
1524.9,583.604
1525,583.568
1525.1,583.532
1525.2,583.497
1525.3,583.461
1525.4,583.426
1525.5,583.39
1525.6,583.354
1525.7,583.319
1525.8,583.283
1525.9,583.248
1526,583.212
1526.1,583.177
1526.2,583.141
1526.3,583.106
1526.4,583.07
1526.5,583.035
1526.6,582.999
1526.7,582.964
1526.8,582.928
1526.9,582.893
1527,582.858
1527.1,582.822
1527.2,582.787
1527.3,582.751
1527.4,582.716
1527.5,582.681
1527.6,582.645
1527.7,582.61
1527.8,582.575
1527.9,582.539
1528,582.504
1528.1,582.469
1528.2,582.434
1528.3,582.398
1528.4,582.363
1528.5,582.328
1528.6,582.293
1528.7,582.257
1528.8,582.222
1528.9,582.187
1529,582.152
1529.1,582.117
1529.2,582.081
1529.3,582.046
1529.4,582.011
1529.5,581.976
1529.6,581.941
1529.7,581.906
1529.8,581.871
1529.9,581.836
1530,581.801
1530.1,581.766
1530.2,581.731
1530.3,581.695
1530.4,581.66
1530.5,581.625
1530.6,581.59
1530.7,581.555
1530.8,581.52
1530.9,581.485
1531,581.451
1531.1,581.416
1531.2,581.381
1531.3,581.346
1531.4,581.311
1531.5,581.276
1531.6,581.241
1531.7,581.206
1531.8,581.171
1531.9,581.136
1532,581.102
1532.1,581.067
1532.2,581.032
1532.3,580.997
1532.4,580.962
1532.5,580.928
1532.6,580.893
1532.7,580.858
1532.8,580.823
1532.9,580.788
1533,580.754
1533.1,580.719
1533.2,580.684
1533.3,580.65
1533.4,580.615
1533.5,580.58
1533.6,580.546
1533.7,580.511
1533.8,580.476
1533.9,580.442
1534,580.407
1534.1,580.372
1534.2,580.338
1534.3,580.303
1534.4,580.269
1534.5,580.234
1534.6,580.199
1534.7,580.165
1534.8,580.13
1534.9,580.096
1535,580.061
1535.1,580.027
1535.2,579.992
1535.3,579.958
1535.4,579.923
1535.5,579.889
1535.6,579.855
1535.7,579.82
1535.8,579.786
1535.9,579.751
1536,579.717
1536.1,579.682
1536.2,579.648
1536.3,579.614
1536.4,579.579
1536.5,579.545
1536.6,579.511
1536.7,579.476
1536.8,579.442
1536.9,579.408
1537,579.373
1537.1,579.339
1537.2,579.305
1537.3,579.271
1537.4,579.236
1537.5,579.202
1537.6,579.168
1537.7,579.134
1537.8,579.099
1537.9,579.065
1538,579.031
1538.1,578.997
1538.2,578.963
1538.3,578.929
1538.4,578.894
1538.5,578.86
1538.6,578.826
1538.7,578.792
1538.8,578.758
1538.9,578.724
1539,578.69
1539.1,578.656
1539.2,578.622
1539.3,578.588
1539.4,578.554
1539.5,578.52
1539.6,578.486
1539.7,578.452
1539.8,578.418
1539.9,578.384
1540,578.35
1540.1,578.316
1540.2,578.282
1540.3,578.248
1540.4,578.214
1540.5,578.18
1540.6,578.146
1540.7,578.112
1540.8,578.078
1540.9,578.044
1541,578.01
1541.1,577.977
1541.2,577.943
1541.3,577.909
1541.4,577.875
1541.5,577.841
1541.6,577.808
1541.7,577.774
1541.8,577.74
1541.9,577.706
1542,577.672
1542.1,577.639
1542.2,577.605
1542.3,577.571
1542.4,577.538
1542.5,577.504
1542.6,577.47
1542.7,577.436
1542.8,577.403
1542.9,577.369
1543,577.335
1543.1,577.302
1543.2,577.268
1543.3,577.235
1543.4,577.201
1543.5,577.167
1543.6,577.134
1543.7,577.1
1543.8,577.067
1543.9,577.033
1544,577
1544.1,576.966
1544.2,576.932
1544.3,576.899
1544.4,576.865
1544.5,576.832
1544.6,576.799
1544.7,576.765
1544.8,576.732
1544.9,576.698
1545,576.665
1545.1,576.631
1545.2,576.598
1545.3,576.564
1545.4,576.531
1545.5,576.498
1545.6,576.464
1545.7,576.431
1545.8,576.398
1545.9,576.364
1546,576.331
1546.1,576.298
1546.2,576.264
1546.3,576.231
1546.4,576.198
1546.5,576.164
1546.6,576.131
1546.7,576.098
1546.8,576.065
1546.9,576.031
1547,575.998
1547.1,575.965
1547.2,575.932
1547.3,575.898
1547.4,575.865
1547.5,575.832
1547.6,575.799
1547.7,575.766
1547.8,575.733
1547.9,575.7
1548,575.666
1548.1,575.633
1548.2,575.6
1548.3,575.567
1548.4,575.534
1548.5,575.501
1548.6,575.468
1548.7,575.435
1548.8,575.402
1548.9,575.369
1549,575.336
1549.1,575.303
1549.2,575.27
1549.3,575.237
1549.4,575.204
1549.5,575.171
1549.6,575.138
1549.7,575.105
1549.8,575.072
1549.9,575.039
1550,575.006
1550.1,574.973
1550.2,574.94
1550.3,574.907
1550.4,574.874
1550.5,574.842
1550.6,574.809
1550.7,574.776
1550.8,574.743
1550.9,574.71
1551,574.677
1551.1,574.645
1551.2,574.612
1551.3,574.579
1551.4,574.546
1551.5,574.513
1551.6,574.481
1551.7,574.448
1551.8,574.415
1551.9,574.383
1552,574.35
1552.1,574.317
1552.2,574.284
1552.3,574.252
1552.4,574.219
1552.5,574.186
1552.6,574.154
1552.7,574.121
1552.8,574.088
1552.9,574.056
1553,574.023
1553.1,573.991
1553.2,573.958
1553.3,573.925
1553.4,573.893
1553.5,573.86
1553.6,573.828
1553.7,573.795
1553.8,573.763
1553.9,573.73
1554,573.698
1554.1,573.665
1554.2,573.633
1554.3,573.6
1554.4,573.568
1554.5,573.535
1554.6,573.503
1554.7,573.47
1554.8,573.438
1554.9,573.405
1555,573.373
1555.1,573.341
1555.2,573.308
1555.3,573.276
1555.4,573.244
1555.5,573.211
1555.6,573.179
1555.7,573.146
1555.8,573.114
1555.9,573.082
1556,573.05
1556.1,573.017
1556.2,572.985
1556.3,572.953
1556.4,572.92
1556.5,572.888
1556.6,572.856
1556.7,572.824
1556.8,572.791
1556.9,572.759
1557,572.727
1557.1,572.695
1557.2,572.663
1557.3,572.63
1557.4,572.598
1557.5,572.566
1557.6,572.534
1557.7,572.502
1557.8,572.47
1557.9,572.437
1558,572.405
1558.1,572.373
1558.2,572.341
1558.3,572.309
1558.4,572.277
1558.5,572.245
1558.6,572.213
1558.7,572.181
1558.8,572.149
1558.9,572.117
1559,572.085
1559.1,572.053
1559.2,572.021
1559.3,571.989
1559.4,571.957
1559.5,571.925
1559.6,571.893
1559.7,571.861
1559.8,571.829
1559.9,571.797
1560,571.765
1560.1,571.733
1560.2,571.701
1560.3,571.67
1560.4,571.638
1560.5,571.606
1560.6,571.574
1560.7,571.542
1560.8,571.51
1560.9,571.478
1561,571.447
1561.1,571.415
1561.2,571.383
1561.3,571.351
1561.4,571.319
1561.5,571.288
1561.6,571.256
1561.7,571.224
1561.8,571.192
1561.9,571.161
1562,571.129
1562.1,571.097
1562.2,571.066
1562.3,571.034
1562.4,571.002
1562.5,570.971
1562.6,570.939
1562.7,570.907
1562.8,570.876
1562.9,570.844
1563,570.812
1563.1,570.781
1563.2,570.749
1563.3,570.717
1563.4,570.686
1563.5,570.654
1563.6,570.623
1563.7,570.591
1563.8,570.56
1563.9,570.528
1564,570.497
1564.1,570.465
1564.2,570.434
1564.3,570.402
1564.4,570.371
1564.5,570.339
1564.6,570.308
1564.7,570.276
1564.8,570.245
1564.9,570.213
1565,570.182
1565.1,570.15
1565.2,570.119
1565.3,570.088
1565.4,570.056
1565.5,570.025
1565.6,569.994
1565.7,569.962
1565.8,569.931
1565.9,569.899
1566,569.868
1566.1,569.837
1566.2,569.805
1566.3,569.774
1566.4,569.743
1566.5,569.712
1566.6,569.68
1566.7,569.649
1566.8,569.618
1566.9,569.587
1567,569.555
1567.1,569.524
1567.2,569.493
1567.3,569.462
1567.4,569.43
1567.5,569.399
1567.6,569.368
1567.7,569.337
1567.8,569.306
1567.9,569.275
1568,569.243
1568.1,569.212
1568.2,569.181
1568.3,569.15
1568.4,569.119
1568.5,569.088
1568.6,569.057
1568.7,569.026
1568.8,568.995
1568.9,568.964
1569,568.933
1569.1,568.902
1569.2,568.87
1569.3,568.839
1569.4,568.808
1569.5,568.777
1569.6,568.746
1569.7,568.715
1569.8,568.685
1569.9,568.654
1570,568.623
1570.1,568.592
1570.2,568.561
1570.3,568.53
1570.4,568.499
1570.5,568.468
1570.6,568.437
1570.7,568.406
1570.8,568.375
1570.9,568.344
1571,568.314
1571.1,568.283
1571.2,568.252
1571.3,568.221
1571.4,568.19
1571.5,568.159
1571.6,568.129
1571.7,568.098
1571.8,568.067
1571.9,568.036
1572,568.005
1572.1,567.975
1572.2,567.944
1572.3,567.913
1572.4,567.883
1572.5,567.852
1572.6,567.821
1572.7,567.79
1572.8,567.76
1572.9,567.729
1573,567.698
1573.1,567.668
1573.2,567.637
1573.3,567.606
1573.4,567.576
1573.5,567.545
1573.6,567.514
1573.7,567.484
1573.8,567.453
1573.9,567.423
1574,567.392
1574.1,567.362
1574.2,567.331
1574.3,567.3
1574.4,567.27
1574.5,567.239
1574.6,567.209
1574.7,567.178
1574.8,567.148
1574.9,567.117
1575,567.087
1575.1,567.056
1575.2,567.026
1575.3,566.995
1575.4,566.965
1575.5,566.934
1575.6,566.904
1575.7,566.874
1575.8,566.843
1575.9,566.813
1576,566.782
1576.1,566.752
1576.2,566.722
1576.3,566.691
1576.4,566.661
1576.5,566.631
1576.6,566.6
1576.7,566.57
1576.8,566.54
1576.9,566.509
1577,566.479
1577.1,566.449
1577.2,566.418
1577.3,566.388
1577.4,566.358
1577.5,566.328
1577.6,566.297
1577.7,566.267
1577.8,566.237
1577.9,566.207
1578,566.176
1578.1,566.146
1578.2,566.116
1578.3,566.086
1578.4,566.056
1578.5,566.025
1578.6,565.995
1578.7,565.965
1578.8,565.935
1578.9,565.905
1579,565.875
1579.1,565.845
1579.2,565.815
1579.3,565.784
1579.4,565.754
1579.5,565.724
1579.6,565.694
1579.7,565.664
1579.8,565.634
1579.9,565.604
1580,565.574
1580.1,565.544
1580.2,565.514
1580.3,565.484
1580.4,565.454
1580.5,565.424
1580.6,565.394
1580.7,565.364
1580.8,565.334
1580.9,565.304
1581,565.274
1581.1,565.244
1581.2,565.214
1581.3,565.184
1581.4,565.154
1581.5,565.125
1581.6,565.095
1581.7,565.065
1581.8,565.035
1581.9,565.005
1582,564.975
1582.1,564.945
1582.2,564.916
1582.3,564.886
1582.4,564.856
1582.5,564.826
1582.6,564.796
1582.7,564.766
1582.8,564.737
1582.9,564.707
1583,564.677
1583.1,564.647
1583.2,564.618
1583.3,564.588
1583.4,564.558
1583.5,564.528
1583.6,564.499
1583.7,564.469
1583.8,564.439
1583.9,564.41
1584,564.38
1584.1,564.35
1584.2,564.321
1584.3,564.291
1584.4,564.261
1584.5,564.232
1584.6,564.202
1584.7,564.173
1584.8,564.143
1584.9,564.113
1585,564.084
1585.1,564.054
1585.2,564.025
1585.3,563.995
1585.4,563.965
1585.5,563.936
1585.6,563.906
1585.7,563.877
1585.8,563.847
1585.9,563.818
1586,563.788
1586.1,563.759
1586.2,563.729
1586.3,563.7
1586.4,563.67
1586.5,563.641
1586.6,563.612
1586.7,563.582
1586.8,563.553
1586.9,563.523
1587,563.494
1587.1,563.464
1587.2,563.435
1587.3,563.406
1587.4,563.376
1587.5,563.347
1587.6,563.318
1587.7,563.288
1587.8,563.259
1587.9,563.229
1588,563.2
1588.1,563.171
1588.2,563.142
1588.3,563.112
1588.4,563.083
1588.5,563.054
1588.6,563.024
1588.7,562.995
1588.8,562.966
1588.9,562.937
1589,562.907
1589.1,562.878
1589.2,562.849
1589.3,562.82
1589.4,562.791
1589.5,562.761
1589.6,562.732
1589.7,562.703
1589.8,562.674
1589.9,562.645
1590,562.615
1590.1,562.586
1590.2,562.557
1590.3,562.528
1590.4,562.499
1590.5,562.47
1590.6,562.441
1590.7,562.412
1590.8,562.383
1590.9,562.353
1591,562.324
1591.1,562.295
1591.2,562.266
1591.3,562.237
1591.4,562.208
1591.5,562.179
1591.6,562.15
1591.7,562.121
1591.8,562.092
1591.9,562.063
1592,562.034
1592.1,562.005
1592.2,561.976
1592.3,561.947
1592.4,561.918
1592.5,561.889
1592.6,561.861
1592.7,561.832
1592.8,561.803
1592.9,561.774
1593,561.745
1593.1,561.716
1593.2,561.687
1593.3,561.658
1593.4,561.629
1593.5,561.601
1593.6,561.572
1593.7,561.543
1593.8,561.514
1593.9,561.485
1594,561.456
1594.1,561.428
1594.2,561.399
1594.3,561.37
1594.4,561.341
1594.5,561.312
1594.6,561.284
1594.7,561.255
1594.8,561.226
1594.9,561.197
1595,561.169
1595.1,561.14
1595.2,561.111
1595.3,561.083
1595.4,561.054
1595.5,561.025
1595.6,560.997
1595.7,560.968
1595.8,560.939
1595.9,560.911
1596,560.882
1596.1,560.853
1596.2,560.825
1596.3,560.796
1596.4,560.767
1596.5,560.739
1596.6,560.71
1596.7,560.682
1596.8,560.653
1596.9,560.625
1597,560.596
1597.1,560.567
1597.2,560.539
1597.3,560.51
1597.4,560.482
1597.5,560.453
1597.6,560.425
1597.7,560.396
1597.8,560.368
1597.9,560.339
1598,560.311
1598.1,560.282
1598.2,560.254
1598.3,560.226
1598.4,560.197
1598.5,560.169
1598.6,560.14
1598.7,560.112
1598.8,560.083
1598.9,560.055
1599,560.027
1599.1,559.998
1599.2,559.97
1599.3,559.942
1599.4,559.913
1599.5,559.885
1599.6,559.856
1599.7,559.828
1599.8,559.8
1599.9,559.771
1600,559.743
