wavelength,polarizability
1100.9,-1657.0639999999999

1100.4,-1635.906

1101.4,-1679.223

1103.9,-1815.326
1103.4,-1783.5030000000002
1105.9,-1984.363
1100.3,-1631.774
1101.5,-1683.797
1108.9,-2583.168
1109.9,-3121.868
1110.9,-4506.327
1111.9,-16685.239999999998
1112.9,3812.0840000000003
1113.9,806.854
1114.9,-14.740999999999872
1115.9,-402.14599999999984
1107.4,-2193.468
1117.9,-782.01
1118.4,-840.9639999999999
1119.4,-936.745
1119.9,-976.5
1120.9,-1044.581
1121.4,-1074.228
1122.4,-1127.125
1123.4,-1173.758
1124.4,-1216.208
1126.4,-1295.047
1126.9,-1314.62
1127.4,-1334.5810000000001
1121.7,-1090.905
1130.4,-1487.863
1131.4,-1583.0950000000003
1132.4,-1790.587
1133.4,-3383.9069999999997
1134.4,-712.4069999999999
1135.4,-1149.8799999999999
1136.4,-1288.4660000000001
1137.4,-1370.056
1138.3,-1426.991
1139.3,-1483.607
1140.3,-1539.135

1141.3,-1597.705

1142.3,-1663.165

1138.4,-1432.8490000000002

1144.3,-1835.815

1145.8,-2042.085

1139.4,-1489.132

1140.4,-1544.7930000000001

1141.4,-1603.8739999999998

1142.4,-1670.2579999999998

1142.5,-1677.471

1144.5,-1858.0549999999998

1146.5,-2185.346

1149.5,-4847.026

1150.5,-88150.342

1151.5,2525.58

1155.5,-630.0609999999999

1156.9,-811.112

1157.5,-868.807

1158.5,-948.684

1159.5,-1014.4209999999999

1160.8,-1086.196

1161.8,-1134.586

1161.9,-1139.194

1162.8,-1179.318

1163.8,-1222.038

1164.8,-1264.279

1165.8,-1307.74

1166.8,-1354.72

1168.6,-1462.748

1162.4,-1161.7540000000001

1162.9,-1183.656

1167.8,-1409.034

1168.8,-1478.525

1169.6,-1558.07

1169.8,-1584.28

1170.8,-1815.098

1171.8,-3884.88

1177.7,-1585.159

1172.8,-751.36

1173.8,-1175.461

1181.1,-1998.4470000000001

1182.1,-2228.014

1181.6,-2101.345

1181.9,-2173.931

1182.6,-2389.027

1186.1,63518.116

1187.1,2662.564

1188.1,759.392

1182.9,-2509.023

1190.1,-255.56400000000008

1191.1,-469.91900000000004

1192.1,-617.948

1193.1,-728.0100000000001

1194.1,-814.458

1195.1,-885.3720000000001

1196.1,-945.693

1197.1,-998.665

1198.1,-1046.563

1199.1,-1091.112

1200.1,-1133.751

1201.1,-1175.833

1202.1,-1218.846

1203.1,-1264.725

1204.1,-1316.46

1205.1,-1379.538

1206.1,-1466.1889999999999

1207.1,-1612.145

1208.1,-1991.3449999999998

1209.1,-30060.783

1210.1,-581.47

1211.1,-991.154

1212.1,-1146.5520000000001

1213.1,-1241.187

1214.1,-1313.404

1215.1,-1376.3429999999998

1216.1,-1436.136

1217.1,-1496.476

1218.1,-1560.209

1219.1,-1630.078

1211.7,-1095.804

1212.2,-1157.733

1218.8,-1608.297

1219.8,-1684.303

1220.3,-1726.5500000000002

1221.1,-1801.908

1221.2,-1812.123

1221.3,-1822.5359999999998

1221.4,-1833.1570000000002

1221.5,-1843.993

1221.6,-1855.0520000000001

1222.1,-1914.0189999999998

1223.0,-2039.121

1224.0,-2218.84

1226.0,-2839.124

1227.0,-3463.1839999999997

1228.0,-4746.957

1229.0,-8986.832

1230.0,48202.455

1231.0,4845.86

1232.0,2044.136

1233.0,1022.868

1242.8,-702.2800000000001

1243.8,-749.5469999999999

1244.8,-792.0929999999998

1245.8,-830.923

1246.8,-866.828

1247.8,-900.4449999999999

1248.8,-932.3129999999999

1249.8,-962.8969999999999

1250.3,-977.8420000000001

1250.8,-992.6260000000001

1251.8,-1021.9100000000001

1252.8,-1051.171

1253.8,-1080.8760000000002

1254.8,-1111.574

1255.8,-1143.956

1256.8,-1178.968

1257.8,-1217.978

1258.8,-1263.1280000000002

1259.8,-1318.04

1260.8,-1389.492

1261.8,-1491.971

1262.8,-1663.289

1263.8,-2043.9560000000001

1264.8,-3971.233

1265.8,1297.54

1266.8,-342.4560000000001

1267.8,-701.617

1268.8,-868.8109999999999

1269.8,-971.668

1270.8,-1045.6080000000002

1271.8,-1104.4470000000001

1273.7,-1195.744

1274.7,-1238.5610000000001

1275.7,-1279.972

1276.7,-1321.0929999999998

1277.7,-1362.826

1278.7,-1405.973

1272.8,-1154.758

1273.8,-1200.1280000000002

1274.8,-1242.7450000000001

1279.7,-1451.309

1275.8,-1284.0810000000001

1276.8,-1325.2250000000001

1277.8,-1367.0639999999999

1278.8,-1410.395

1279.8,-1455.993

1280.8,-1504.6770000000001

1280.7,-1499.6440000000002

1281.8,-1557.357

1282.8,-1615.1100000000001

1283.8,-1679.243

1284.8,-1751.409

1285.0,-1766.983

1286.0,-1851.672

1287.0,-1950.079

1288.0,-2066.407

1289.0,-2206.661

1290.0,-2379.7470000000003

1291.0,-2599.498

1293.0,-3287.349

1293.8,-3735.473

1295.0,-4824.6720000000005

1304.5,1180.862

1305.5,902.0849999999999

1297.0,-11444.074999999999

1298.0,-63002.647

1299.0,15248.252

1309.5,281.93600000000015

1310.5,190.49399999999991

1302.0,2520.7059999999997

1303.0,1817.162

1304.0,1356.3600000000004

1314.5,-60.216999999999985

1315.5,-103.90700000000004

1316.5,-142.41199999999992

1317.5,-176.49599999999998

1309.0,334.1279999999998

1319.5,-233.72700000000003

1320.5,-257.77399999999994

1321.5,-279.24299999999994

1313.0,17.230000000000018

1314.0,-36.13400000000013

1324.5,-330.71599999999995

1325.5,-344.21100000000007

1318.0,-192.07500000000005

1319.0,-220.63499999999993

1320.0,-246.09199999999993

1329.5,-383.46199999999993

1330.5,-390.0570000000001

1331.5,-395.504

1323.0,-307.202

1324.0,-323.33299999999997

1334.5,-405.468

1335.5,-406.80899999999997

1327.0,-361.5269999999999

1328.0,-371.2829999999999

1329.0,-379.717

1339.5,-403.35299999999995

1331.0,-392.9199999999999

1341.5,-397.096

1342.5,-393.14200000000005

1334.0,-404.43899999999996

1335.0,-406.25600000000003

1345.5,-380.28700000000003

1346.5,-376.86899999999997

1338.0,-406.2029999999999

1339.0,-404.49399999999997

1340.0,-402.031

1343.0,-391.02399999999994

1344.0,-386.6410000000001

1345.0,-382.31000000000006

1346.0,-378.44499999999994

1347.0,-375.66099999999994

1355.5,-1135.011

1355.4,-1075.191

1355.9,-1455.885

1356.5,-2448.826

1350.0,-386.031

1351.0,-404.17199999999997

1352.0,-438.94500000000005

1353.0,-503.791

1356.0,-1564.636

1364.7,1916.2210000000002

1365.7,2146.864

1366.7,2449.7380000000003

1367.7,2843.4559999999997

1368.7,3359.2560000000003

1369.7,4049.339

1370.7,5004.885

1371.7,6398.250999999999

1372.7,8596.663

1373.9,13737.836000000001

1373.7,12543.052000000001

1374.7,21605.855999999996

1375.7,63399.076

1376.7,-83116.45300000001

1377.7,-26777.665999999997

1378.7,-16565.190000000002

1379.7,-12302.376

1380.7,-9973.531

1381.7,-8513.518

1382.7,-7518.457

1383.7,-6801.589000000001

1384.7,-6264.722

1385.7,-5851.351000000001

1386.7,-5526.717

1387.7,-5268.311999999999

1388.7,-5060.983

1389.7,-4894.205

1390.2,-4823.6

1390.7,-4760.509999999999

1391.7,-4654.517

1392.7,-4572.329

1393.7,-4511.146

1394.7,-4469.011

1395.7,-4444.651

1396.7,-4437.375

1397.7,-4447.031999999999

1398.7,-4473.999

1399.7,-4519.219999999999

1400.2,-4549.146

1400.7,-4584.294

1401.7,-4671.6140000000005

1402.7,-4784.615

1403.7,-4928.13

1404.7,-5108.982

1408.7,-6487.336

1409.7,-7149.522

1410.7,-8086.198

1405.2,-5216.305

1405.7,-5336.923999999999

1413.7,-16507.537

1406.7,-5626.217

1411.7,-9498.525

1407.7,-5998.387

1408.0,-6130.8060000000005

1418.6,8309.009999999998

1410.0,-7395.254000000001

1411.0,-8446.375

1412.0,-10071.453

1413.0,-12891.918999999998

1414.0,-18940.258

1418.0,11090.159

1425.9,901.701

1426.9,649.1909999999999

1427.9,439.2210000000001

1428.6,312.17599999999993

1428.9,261.97900000000004

1429.9,110.43500000000006

1430.4,42.62900000000002

1430.9,-20.577999999999975

1429.6,153.53600000000006

1431.9,-134.94299999999998

1432.9,-235.62900000000008

1433.9,-324.95200000000006

1434.9,-404.73800000000006

1435.9,-476.44899999999996

1430.1,82.72899999999993

1436.9,-541.269

1437.9,-600.165

1438.9,-653.9359999999999

1439.4,-679.111

1439.9,-703.246

1440.4,-726.4069999999999

1440.9,-748.655

1441.9,-790.634

1442.4,-810.465

1442.9,-829.5849999999999

1443.9,-865.8499999999999

1444.4,-883.0709999999999

1444.9,-899.7270000000001

1445.4,-915.851

1445.9,-931.47

1446.9,-961.3029999999999

1447.9,-989.42

1448.9,-1015.9910000000001

1449.4,-1028.745

1450.4,-1053.274

1451.9,-1087.853

1452.9,-1109.585

1453.9,-1130.374

1463.8,-1300.014

1464.3,-1307.3490000000002

1464.8,-1314.6009999999999

1465.3,-1321.775

1465.8,-1328.873

1466.8,-1342.8609999999999

1467.3,-1349.7559999999999

1467.8,-1356.591

1468.8,-1370.0900000000001

1469.8,-1383.381

1473.6,-1432.397

1470.8,-1396.489

1471.8,-1409.435

1467.4,-1351.128

1468.9,-1371.4279999999999

1469.0,-1372.7640000000001

1470.0,-1386.0169999999998

1471.0,-1399.09

1472.0,-1412.007

1473.0,-1424.7869999999998

1483.9,-1560.442

1475.0,-1450.0149999999999

1476.0,-1462.502

1477.0,-1474.9279999999999

1478.0,-1487.312

1482.0,-1536.768

1483.0,-1549.201

1484.0,-1561.696

1485.0,-1574.272

1486.0,-1586.9479999999999

1487.0,-1599.745

1493.0,-1680.274

1494.0,-1694.558

1495.0,-1709.168

1496.0,-1724.1399999999999

1497.0,-1739.5149999999999

1498.0,-1755.335

1499.0,-1771.6490000000001

1500.0,-1788.513

1501.0,-1805.987

1502.0,-1824.141

1503.0,-1843.054

1504.0,-1862.815

1506.6,-1918.9650000000001

1507.6,-1942.7740000000003

1508.6,-1968.076

1509.6,-1995.087

1510.6,-2024.0700000000002

1511.6,-2055.34

1512.6,-2089.284

1513.6,-2126.381

1514.6,-2167.2340000000004

1515.6,-2212.606

1516.6,-2263.484

1517.1,-2291.379

1517.6,-2321.169

1518.6,-2387.401

1518.8,-2401.871

1519.6,-2464.582

1520.6,-2556.099

1521.6,-2666.911

1522.6,-2804.5640000000003

1523.6,-2981.142

1524.6,-3217.286

1525.6,-3551.385

1528.8,-7638.115

1529.8,-20757.767

1530.8,13781.953999999998

1531.8,3747.7780000000007

1532.8,1575.728

1526.6,-4063.9040000000005

1527.6,-4956.759

1528.6,-6921.416

1529.6,-14905.677000000001

1530.6,22659.516

1533.8,622.014

1531.6,4566.6269999999995

1540.3,-998.76

1540.8,-1044.138

1533.6,767.6610000000002

1534.6,171.5859999999999

1535.6,-205.28000000000003

1536.6,-466.549

1537.6,-659.447

1538.6,-808.5830000000001

1539.6,-928.038

1540.1,-979.471

1550.5,-1537.379

1551.6,-1571.979

1552.5,-1598.848

1544.6,-1298.26

1545.1,-1323.667

1546.6,-1392.749

1547.6,-1433.918

1548.6,-1471.958

1549.6,-1507.385

1559.6,-1781.585

1560.1,-1793.1979999999999

1560.6,-1804.71

1561.6,-1827.4629999999997

1563.5,-1869.898

1564.5,-1891.9189999999999

1565.5,-1913.79

1566.5,-1935.5549999999998

1562.6,-1849.9099999999999

1568.8,-1985.435

1569.8,-2007.132

1570.3,-2018.0

1570.8,-2028.885

1571.8,-2050.727

1572.8,-2072.689

1573.8,-2094.8

1574.8,-2117.091

1575.3,-2128.312

1575.8,-2139.589

1576.8,-2162.3239999999996

1577.8,-2185.322

1578.8,-2208.613

1579.8,-2232.2250000000004

1580.3,-2244.1600000000003

1580.8,-2256.1850000000004

1581.8,-2280.5229999999997

1582.8,-2305.268

1583.8,-2330.448

1584.8,-2356.098

1585.3,-2369.107

1585.8,-2382.245

1586.8,-2408.925

1587.8,-2436.1710000000003

1588.8,-2464.0170000000003

1589.8,-2492.502

1590.3,-2506.995

1590.8,-2521.6639999999998

1591.3,-2536.5099999999998

1588.6,-2458.397

1589.6,-2486.752

1590.1,-2501.177

1591.4,-2539.502

1592.0,-2557.6079999999997

1593.0,-2588.405

1594.0,-2620.015

1595.0,-2652.49

1596.0,-2685.878

1597.0,-2720.234

1598.0,-2755.616

1599.0,-2792.087

1600.0,-2829.71

1576.5,-2155.477

1583.5,-2322.846

1456.5,-1180.5900000000001

1458.5,-1216.039

1461.5,-1265.092

1462.5,-1280.528

1463.5,-1295.571

1464.0,-1302.958

1100.0,-1619.5439999999999

1100.1,-1623.594

1100.5,-1640.069

1100.6,-1644.2640000000001

1101.6,-1688.422

1101.0,-1661.4070000000002

1101.9,-1702.6370000000002

1101.1,-1665.7939999999999

1102.6,-1738.076

1102.9,-1754.4160000000002

1102.5,-1732.795

1102.0,-1707.495

1102.1,-1712.4159999999997

1103.6,-1795.8739999999998

1103.0,-1760.0390000000002

1103.5,-1789.632

1102.4,-1727.5910000000001

1103.1,-1765.755

1104.1,-1828.949

1104.4,-1850.472

1104.6,-1865.62

1104.9,-1889.679

1104.5,-1857.962

1105.4,-1933.895

1105.0,-1898.087

1105.5,-1943.442

1104.0,-1822.069

1105.6,-1953.2490000000003

1106.4,-2042.7559999999999

1106.9,-2111.371

1106.5,-2055.574

1106.1,-2006.658

1106.0,-1995.346

1107.6,-2231.083

1107.5,-2211.89

1107.0,-2126.585

1107.1,-2142.366

1107.9,-2293.8320000000003

1108.1,-2340.612

1108.4,-2419.79

1108.5,-2448.9790000000003

1108.0,-2316.679

1108.6,-2479.765

1109.1,-2663.117

1109.4,-2804.364

1109.5,-2858.42

1109.0,-2621.901

1109.6,-2916.642

1110.1,-3291.5860000000002

1110.4,-3618.013

1110.5,-3752.9269999999997

1110.0,-3202.826

1110.6,-3905.093

1111.1,-5096.358

1111.4,-6565.924

1111.5,-7354.423000000001

1111.0,-4775.87

1111.6,-8426.754

1112.1,-72178.92

1112.4,14491.773

1112.5,9879.920999999998

1112.0,-26537.635000000002

1112.6,7340.706999999999

1113.1,2703.558

1113.4,1707.6130000000003

1113.5,1474.125

1113.0,3192.319

1113.6,1272.8419999999999

1114.1,575.6350000000001

1114.4,305.49800000000005

1114.5,230.66999999999985

1114.0,685.023

1114.6,161.89300000000003

1115.1,-112.79500000000007

1115.4,-237.61199999999997

1115.5,-274.34799999999984

1115.0,-65.46000000000004

1115.6,-309.00199999999995

1116.0,-430.058

1116.4,-528.9839999999999

1116.9,-630.072

1116.5,-550.976

1116.6,-572.0210000000001

1117.1,-665.0550000000001

1117.4,-712.807

1117.5,-727.607

1117.0,-647.9050000000001

1116.1,-456.5999999999999

1118.9,-891.9830000000002

1118.5,-851.742

1118.0,-794.5350000000001

1118.1,-806.675

1117.6,-741.9010000000001

1119.5,-945.0630000000001

1119.0,-901.391

1119.1,-910.5609999999999

1118.6,-862.218

1119.6,-953.1899999999999

1120.0,-983.939

1120.1,-991.221

1120.4,-1012.1990000000001

1120.5,-1018.92

1120.6,-1025.514

1121.9,-1101.615

1121.5,-1079.874

1121.0,-1050.712

1121.1,-1056.739

1121.6,-1085.431

1122.5,-1132.03

1122.6,-1136.8770000000002

1122.9,-1151.081

1122.0,-1106.855

1122.1,-1112.024

1123.5,-1178.161

1123.0,-1155.71

1123.9,-1195.396

1123.1,-1160.2910000000002

1123.6,-1182.525

1124.0,-1199.618

1124.5,-1220.289

1124.6,-1224.346

1124.9,-1236.392

1124.1,-1203.809

1125.0,-1240.37

1125.6,-1263.949

1125.9,-1275.622

1125.1,-1244.332

1125.4,-1256.1350000000002

1126.5,-1298.942

1126.0,-1279.5059999999999

1126.1,-1283.388

1125.5,-1260.0459999999998

1126.6,-1302.845

1127.0,-1318.5729999999999

1127.5,-1338.644

1127.6,-1342.737

1127.9,-1355.22

1127.1,-1322.5430000000001

1128.5,-1381.4089999999999

1128.4,-1376.905

1128.6,-1385.9769999999999

1128.1,-1363.7450000000001

1128.0,-1359.4610000000002

1129.5,-1431.017

1129.6,-1436.596

1128.9,-1400.129

1129.0,-1405.013

1129.4,-1425.578

1130.0,-1460.541

1130.5,-1495.377

1130.9,-1529.0810000000001

1130.1,-1467.008

1129.9,-1454.2820000000002

1131.5,-1596.219

1131.6,-1610.382

1131.9,-1660.858

1131.0,-1538.627

1131.1,-1548.728

1132.5,-1828.6570000000002

1132.6,-1873.425

1132.9,-2074.192

1132.0,-1681.149

1132.1,-1703.724

1133.5,-4592.343

1133.6,-9541.044

1133.9,814.6720000000001

1133.0,-2179.932

1133.1,-2322.268

1134.5,-800.3679999999999

1134.6,-870.089

1134.9,-1014.1360000000001

1134.0,148.211

1134.1,-213.36899999999991

1135.5,-1169.076

1135.6,-1186.5880000000002

1135.9,-1231.299

1135.0,-1048.584

1135.1,-1078.616

1136.5,-1298.147

1136.6,-1307.389

1136.9,-1332.916

1136.0,-1244.162

1136.1,-1256.219

1137.5,-1376.888

1137.6,-1383.563

1137.9,-1402.79

1137.0,-1340.812

1137.1,-1348.451

1138.5,-1438.647

1138.6,-1444.3899999999999

1138.9,-1461.364

1138.0,-1408.973

1138.1,-1415.061

1139.5,-1494.653

1139.6,-1500.1729999999998

1139.9,-1516.77

1139.0,-1466.9550000000002

1139.1,-1472.5230000000001

1140.5,-1550.487

1140.6,-1556.217

1140.9,-1573.674

1140.0,-1522.329

1140.1,-1527.906

1141.5,-1610.115

1141.6,-1616.432

1141.9,-1635.886

1141.0,-1579.593

1141.1,-1585.569

1142.6,-1684.808

1142.9,-1707.635

1142.0,-1642.5529999999999

1142.1,-1649.3179999999998

1143.4,-1748.8039999999999

1143.9,-1794.7559999999999

1143.5,-1757.576

1143.6,-1766.547

1143.0,-1715.5370000000003

1144.4,-1846.7800000000002

1144.9,-1906.594

1144.6,-1869.656

1143.1,-1723.598

1144.0,-1804.627

1145.4,-1976.57

1145.5,-1992.058

1145.0,-1919.6860000000001

1145.6,-2008.116

1145.9,-2060.08

1146.4,-2162.1079999999997

1146.0,-2078.8059999999996

1146.6,-2209.698

1146.9,-2290.358

1145.1,-1933.2040000000002

1147.5,-2497.185

1147.4,-2457.424

1147.0,-2320.138

1147.6,-2539.567

1147.9,-2685.413

1148.4,-3017.0530000000003

1148.5,-3102.523

1148.0,-2741.491

1148.6,-3196.6759999999995

1148.9,-3547.081

1149.4,-4536.045

1149.0,-3693.875

1149.6,-5223.759999999999

1149.9,-7055.500000000001

1148.1,-2802.063

1150.4,-27215.807

1150.6,62871.493

1150.9,9001.453

1149.1,-3860.8650000000002

1150.0,-8115.454

1151.4,2976.2000000000003

1151.6,2159.975

1151.9,1385.3629999999998

1151.0,6743.7660000000005

1150.1,-9653.973

1151.1,5295.619

1152.4,647.9620000000001

1152.5,545.3419999999998

1152.6,452.5869999999999

1152.9,220.96000000000004

1152.0,1197.7150000000001

1153.4,-58.608999999999924

1153.5,-103.41200000000003

1153.0,156.13199999999983

1153.6,-145.36199999999997

1153.9,-256.63800000000003

1154.4,-404.8649999999999

1154.5,-430.19800000000004

1154.0,-289.57499999999993

1154.6,-454.342

1154.9,-520.4640000000002

1155.4,-613.544

1155.0,-540.638

1155.6,-645.9759999999999

1155.9,-690.4449999999999

1154.1,-320.727

1156.4,-755.344

1156.5,-767.154

1156.6,-778.618

1156.0,-704.279

1156.1,-717.6610000000001

1157.4,-859.7860000000001

1157.6,-877.616

1157.9,-902.8520000000001

1157.0,-821.36

1157.1,-831.339

1158.4,-941.429

1158.9,-976.368

1158.6,-955.8

1158.0,-910.8970000000002

1158.1,-918.769

1159.4,-1008.3349999999999

1159.9,-1037.864

1159.6,-1020.4130000000001

1159.0,-982.98

1159.1,-989.479

1160.4,-1065.385

1160.9,-1091.253

1160.5,-1070.68

1160.0,-1043.516

1160.6,-1075.912

1161.4,-1115.77

1161.5,-1120.5349999999999

1161.0,-1096.2549999999999

1161.6,-1125.257

1161.1,-1101.2069999999999

1162.5,-1166.18

1162.6,-1170.5819999999999

1162.0,-1143.768

1162.1,-1148.31

1163.6,-1213.582

1163.4,-1205.094

1163.9,-1226.258

1163.5,-1209.342

1163.0,-1187.9740000000002

1164.4,-1247.339

1164.9,-1268.538

1164.5,-1251.562

1164.6,-1255.7920000000001

1164.0,-1230.475

1165.4,-1290.0819999999999

1165.9,-1312.233

1165.5,-1294.455

1165.0,-1272.812

1165.6,-1298.853

1166.4,-1335.313

1166.5,-1340.075

1166.9,-1359.737

1166.0,-1316.763

1166.1,-1321.333

1167.4,-1386.0700000000002

1167.5,-1391.629

1167.9,-1415.1100000000001

1167.0,-1364.8300000000002

1167.1,-1370.003

1168.5,-1455.283

1168.4,-1448.069

1168.9,-1486.892

1168.0,-1421.339

1168.1,-1427.7359999999999

1169.4,-1534.966

1169.0,-1495.6190000000001

1169.5,-1546.1750000000002

1169.9,-1598.8229999999999

1169.1,-1504.745

1170.4,-1692.995

1170.6,-1746.294

1170.5,-1718.088

1170.9,-1857.909

1170.0,-1614.5149999999999

1171.4,-2264.7670000000003

1171.9,-6001.934

1171.5,-2436.813

1171.0,-1908.527

1170.1,-1631.533

1172.4,-17.381000000000085

1172.9,-833.002

1172.5,-312.6680000000001

1172.0,-32523.184

1171.1,-1969.497

1173.4,-1072.443

1173.9,-1195.507

1173.5,-1102.565

1173.0,-898.8000000000001

1172.1,5103.0560000000005

1174.4,-1276.164

1174.9,-1337.189

1174.5,-1289.531

1174.0,-1213.9740000000002

1173.1,-953.1510000000001

1175.4,-1388.016

1175.9,-1433.36

1175.0,-1347.976

1175.5,-1397.4180000000001

1174.1,-1231.097

1176.4,-1475.932

1176.9,-1517.509

1176.5,-1484.281

1176.0,-1442.0299999999997

1176.1,-1450.608

1177.4,-1559.4050000000002

1177.9,-1602.726

1177.5,-1567.9209999999998

1177.0,-1525.825

1177.1,-1534.164

1178.4,-1648.526

1178.9,-1697.9139999999998

1178.5,-1658.0790000000002

1178.0,-1611.654

1178.1,-1620.6889999999999

1179.4,-1752.1680000000001

1179.9,-1812.855

1179.5,-1763.734

1179.0,-1708.33

1179.1,-1718.9519999999998

1180.4,-1882.0030000000002

1180.5,-1897.073

1180.9,-1962.355

1180.0,-1825.9320000000002

1180.1,-1839.364

1181.4,-2057.772

1181.5,-2079.12

1181.0,-1980.084

1180.6,-1912.6149999999998

1182.4,-2319.5840000000003

1182.5,-2353.37

1182.0,-2200.346

1183.4,-2767.344

1183.6,-2899.498

1183.9,-3143.107

1183.5,-2830.875

1183.0,-2554.083

1183.1,-2602.107

1184.4,-3744.19

1184.6,-4100.481

1184.9,-4868.377

1184.0,-3239.981

1184.5,-3910.825

1185.6,-10749.672

1185.9,-31794.622999999996

1185.4,-7750.021

1185.5,-8970.195

1184.1,-3346.716

1186.6,6127.817

1186.9,3568.328

1186.4,10173.631

1186.5,7715.159

1185.0,-5222.666

1187.4,1800.5389999999998

1186.0,-117053.05200000001

1187.6,1408.7669999999998

1187.9,977.737

1187.0,3068.602

1188.4,500.3570000000001

1187.5,1591.3590000000002

1188.6,360.8589999999998

1188.9,187.49199999999996

1188.5,427.8280000000001

1189.6,-105.98000000000002

1189.4,-34.22100000000012

1189.5,-71.09999999999991

1189.9,-200.17899999999997

1189.0,137.33400000000006

1190.6,-373.773

1190.4,-329.56199999999995

1190.9,-433.671

1190.0,-228.5379999999999

1190.5,-352.13400000000007

1191.6,-549.976

1191.4,-519.594

1191.9,-592.0099999999999

1191.0,-452.13399999999996

1191.5,-535.039

1192.0,-605.173

1192.4,-654.1270000000001

1192.6,-676.625

1192.9,-708.227

1192.5,-665.528

1193.5,-764.875

1193.0,-718.24

1193.4,-755.9739999999999

1193.6,-773.5819999999999

1193.9,-798.611

1194.5,-844.3610000000001

1194.0,-806.6149999999999

1194.4,-837.094

1194.6,-851.4960000000001

1194.9,-872.1639999999999

1195.4,-904.4090000000001

1195.5,-910.5620000000001

1195.6,-916.625

1195.9,-934.304

1195.0,-878.8220000000001

1196.4,-962.239

1196.5,-967.6210000000001

1196.6,-972.939

1196.9,-988.539

1196.0,-940.0360000000001

1197.4,-1013.481

1197.6,-1023.1310000000001

1197.9,-1037.301

1197.5,-1018.327

1197.0,-993.629

1198.4,-1060.211

1198.6,-1069.162

1198.9,-1082.3990000000001

1198.0,-1041.95

1198.5,-1064.7

1199.4,-1104.0430000000001

1199.0,-1086.766

1199.5,-1108.321

1199.6,-1112.586

1199.9,-1125.311

1200.0,-1129.534

1200.4,-1146.37

1200.6,-1154.774

1200.9,-1167.393

1200.5,-1150.5729999999999

1201.0,-1171.609

1201.4,-1188.5629999999999

1201.6,-1197.118

1201.9,-1210.085

1201.5,-1192.8319999999999

1202.0,-1214.453

1202.5,-1236.719

1202.4,-1232.201

1202.6,-1241.275

1202.9,-1255.198

1203.0,-1259.935

1203.4,-1279.4489999999998

1203.6,-1289.604

1203.9,-1305.4370000000001

1203.5,-1284.489

1204.4,-1333.83

1204.6,-1346.0620000000001

1204.9,-1365.5900000000001

1204.5,-1339.875

1204.0,-1310.8970000000002

1205.5,-1410.244

1205.4,-1402.167

1205.6,-1418.625

1205.9,-1445.891

1205.0,-1372.461

1206.4,-1500.764

1206.5,-1513.6409999999998

1206.6,-1527.329

1206.9,-1574.355

1206.0,-1455.801

1207.5,-1711.737

1207.4,-1682.969

1207.6,-1743.932

1207.9,-1869.452

1207.0,-1592.4850000000001

1208.0,-1925.2199999999998

1208.5,-2458.748

1208.4,-2294.685

1208.6,-2684.228

1208.9,-4546.356

1209.5,638.945

1209.4,1353.7259999999999

1209.6,224.231

1209.9,-381.79300000000006

1209.0,-7137.362

1210.4,-766.9259999999999

1210.5,-811.6160000000001

1210.6,-850.651

1210.9,-943.4120000000001

1210.0,-492.7160000000001

1211.4,-1049.104

1211.0,-968.3910000000001

1211.6,-1081.23

1211.9,-1122.519

1211.5,-1065.706

1212.0,-1134.835

1212.4,-1178.687

1212.6,-1198.051

1212.9,-1224.705

1212.5,-1188.549

1213.4,-1264.384

1213.6,-1279.018

1213.9,-1299.975

1213.5,-1271.775

1213.0,-1233.06

1214.4,-1332.906

1214.5,-1339.266

1214.6,-1345.563

1214.9,-1364.1529999999998

1214.0,-1306.737

1215.4,-1394.415

1215.6,-1406.3690000000001

1215.9,-1424.2330000000002

1215.0,-1370.2649999999999

1215.5,-1400.399

1216.4,-1454.0430000000001

1216.5,-1460.038

1216.6,-1466.051

1216.9,-1484.223

1216.0,-1430.1819999999998

1217.4,-1515.118

1217.5,-1521.4119999999998

1217.6,-1527.7510000000002

1217.9,-1547.0620000000001

1217.0,-1490.3339999999998

1218.5,-1587.256

1218.4,-1580.393

1218.6,-1594.193

1218.9,-1615.471

1218.0,-1553.6060000000002

1219.4,-1652.6889999999999

1219.0,-1622.729

1219.5,-1660.428

1219.6,-1668.274

1219.9,-1692.496

1220.5,-1744.417

1220.1,-1709.2559999999999

1220.4,-1735.409

1220.6,-1753.58

1220.9,-1782.048

1221.9,-1889.6589999999999

1221.0,-1791.885

1220.0,-1700.812

1222.4,-1952.708

1222.5,-1966.2269999999999

1222.6,-1980.079

1222.0,-1901.703

1222.9,-2023.783

1223.9,-2198.344

1223.1,-2054.872

1223.4,-2104.807

1223.5,-2122.418

1223.6,-2140.55

1224.9,-2438.322

1224.1,-2240.004

1224.4,-2307.886

1224.5,-2332.1130000000003

1224.6,-2357.216

1225.4,-2596.734

1225.9,-2793.761

1225.0,-2467.4900000000002

1225.1,-2497.834

1225.5,-2632.6240000000003

1226.9,-3382.121

1226.1,-2886.843

1226.4,-3046.187

1226.5,-3105.5

1225.6,-2670.147

1227.9,-4560.133

1227.1,-3550.0460000000003

1227.4,-3852.491

1227.5,-3970.216

1226.6,-3168.3869999999997

1228.9,-8167.135

1228.1,-4954.877

1228.4,-5748.513

1228.5,-6090.468

1227.6,-4098.262

1229.9,178852.97100000002

1229.1,-10021.366

1229.4,-15808.298999999999

1229.5,-19866.289

1228.6,-6486.459

1230.6,8086.794

1230.9,5422.113000000001

1230.1,27457.409999999996

1230.4,11513.404

1230.5,9531.585000000001

1231.6,2779.047

1231.9,2200.939

1231.1,4362.5830000000005

1231.4,3289.219

1231.5,3018.6100000000006

1232.6,1342.5810000000001

1232.9,1094.9850000000001

1232.1,1901.2720000000004

1232.4,1539.8380000000002

1232.5,1437.502

1233.6,670.2599999999999

1233.9,532.694

1233.1,955.1530000000001

1233.4,774.6950000000002

1233.5,721.0649999999999

1234.0,491.1909999999999

1234.6,278.22299999999996

1234.9,190.3119999999999

1234.1,451.6070000000001

1234.4,343.10299999999984

1235.0,163.22500000000002

1235.6,19.908000000000015

1235.9,-41.44899999999984

1234.5,309.98199999999986

1235.1,137.13900000000012

1236.0,-60.622999999999934

1236.6,-164.255

1236.9,-209.77700000000004

1235.4,64.35199999999998

1236.1,-79.21100000000001

1237.0,-224.1489999999999

1237.6,-303.05800000000005

1237.9,-338.39199999999994

1236.4,-131.7199999999999

1236.5,-148.22000000000003

1238.0,-349.63499999999993

1238.6,-412.12399999999997

1238.9,-440.52899999999994

1237.1,-238.149

1237.4,-278.0570000000001

1239.0,-449.62399999999997

1239.6,-500.6719999999999

1239.9,-524.162

1238.1,-360.627

1238.4,-392.18499999999995

1240.0,-531.721

1240.6,-574.5

1240.4,-560.7070000000001

1240.9,-594.3879999999999

1239.1,-458.54099999999994

1241.0,-600.816

1241.6,-637.4449999999999

1241.9,-654.624

1240.1,-539.1510000000001

1241.1,-607.146

1242.6,-692.151

1242.9,-707.254

1241.4,-625.587

1241.5,-631.557

1242.0,-660.197

1243.0,-712.169

1243.6,-740.508

1243.9,-753.9949999999999

1242.1,-665.6959999999999

1242.4,-681.769

1244.0,-758.398

1244.6,-783.91

1244.9,-796.129

1243.1,-717.0260000000001

1243.4,-731.2720000000002

1245.0,-800.129

1245.6,-823.414

1245.9,-834.6339999999999

1244.1,-762.756

1244.4,-775.571

1246.0,-838.316

1246.6,-859.848

1246.9,-870.2829999999999

1245.1,-804.093

1245.4,-815.783

1247.0,-873.715

1247.6,-893.8779999999999

1247.9,-903.702

1246.1,-841.9699999999999

1246.4,-852.773

1247.1,-877.127

1248.0,-906.943

1248.9,-935.422

1247.4,-887.236

1247.5,-890.567

1248.1,-910.167

1249.0,-938.518

1249.6,-956.8619999999999

1249.9,-965.902

1248.4,-919.745

1248.5,-922.9069999999999

1250.6,-986.7289999999999

1250.4,-980.811

1250.9,-995.5680000000001

1249.1,-941.603

1249.4,-950.789

1251.0,-998.5039999999999

1251.6,-1016.068

1251.9,-1024.829

1250.0,-968.8979999999999

1250.1,-971.887

1252.0,-1027.749

1252.6,-1045.299

1252.9,-1054.1129999999998

1251.1,-1001.4380000000001

1251.4,-1010.223

1253.0,-1057.0610000000001

1253.6,-1074.875

1253.9,-1083.8919999999998

1252.1,-1030.67

1252.4,-1039.44

1254.0,-1086.917

1254.6,-1105.3239999999998

1254.9,-1114.723

1253.1,-1060.013

1253.4,-1068.909

1255.0,-1117.8890000000001

1255.6,-1137.304

1255.4,-1130.7469999999998

1255.9,-1147.3200000000002

1254.1,-1089.954

1256.0,-1150.712

1256.6,-1171.6979999999999

1256.9,-1182.661

1255.1,-1121.074

1256.1,-1154.132

1257.0,-1186.395

1257.6,-1209.769

1257.9,-1222.172

1256.4,-1164.5729999999999

1256.5,-1168.1170000000002

1258.0,-1226.429

1258.6,-1253.463

1258.9,-1268.1009999999999

1257.1,-1190.173

1257.4,-1201.78

1259.0,-1273.173

1259.6,-1306.019

1259.9,-1324.286

1258.1,-1230.752

1258.4,-1244.145

1260.0,-1330.701

1260.6,-1373.36

1260.9,-1397.991

1259.1,-1278.3519999999999

1259.4,-1294.5720000000001

1261.0,-1406.8049999999998

1261.6,-1467.77

1261.9,-1504.993

1260.1,-1337.2949999999998

1260.4,-1358.264

1262.0,-1518.705

1262.6,-1619.8039999999999

1262.9,-1687.5620000000001

1261.1,-1415.958

1261.4,-1445.71

1263.0,-1713.8220000000001

1263.6,-1933.0240000000001

1263.9,-2111.188

1262.1,-1533.172

1262.4,-1581.8929999999998

1264.0,-2188.7309999999998

1264.6,-3129.3770000000004

1264.9,-4732.57

1263.1,-1742.339

1263.4,-1845.0749999999998

1265.0,-6057.831999999999

1265.6,2802.372

1265.4,8903.889

1265.9,902.177

1264.1,-2279.234

1266.0,614.5289999999999

1266.6,-209.37099999999998

1266.9,-397.11199999999997

1265.1,-8945.863

1266.1,395.69100000000014

1267.6,-653.078

1267.9,-723.3499999999999

1266.4,-30.55799999999988

1266.5,-127.07499999999993

1267.0,-445.67500000000007

1268.0,-743.6400000000001

1268.6,-842.399

1268.9,-881.103

1267.1,-489.145

1267.4,-596.1800000000001

1269.0,-892.8510000000001

1269.6,-954.075

1269.9,-980.044

1268.1,-762.64

1268.4,-813.1510000000001

1270.0,-988.1619999999999

1270.6,-1032.3229999999999

1270.9,-1052.028

1269.1,-904.099

1269.4,-935.214

1271.0,-1058.31

1271.6,-1093.5149999999999

1271.9,-1109.7869999999998

1270.1,-996.039

1270.4,-1018.3799999999999

1272.0,-1115.049

1272.6,-1145.1799999999998

1272.9,-1159.473

1271.1,-1064.462

1271.4,-1082.211

1273.0,-1164.143

1273.6,-1191.3310000000001

1273.9,-1204.485

1272.1,-1120.2350000000001

1272.4,-1135.3849999999998

1274.0,-1208.817

1274.6,-1234.3650000000002

1274.9,-1246.917

1273.1,-1168.77

1273.4,-1182.411

1275.0,-1251.076

1275.6,-1275.86

1275.9,-1288.188

1274.1,-1213.125

1274.4,-1225.923

1276.0,-1292.2939999999999

1276.6,-1316.967

1276.9,-1329.364

1275.1,-1255.225

1275.4,-1267.625

1277.0,-1333.511

1277.6,-1358.6019999999999

1277.9,-1371.318

1276.1,-1296.401

1276.4,-1308.73

1278.0,-1375.587

1278.6,-1401.573

1278.9,-1414.8400000000001

1277.1,-1337.6660000000002

1277.4,-1350.193

1279.0,-1419.308

1279.6,-1446.654

1279.9,-1460.7089999999998

1278.1,-1379.872

1278.4,-1392.835

1279.1,-1423.8000000000002

1280.0,-1465.4560000000001

1280.6,-1494.6509999999998

1280.9,-1509.748

1279.4,-1437.431

1280.1,-1470.2350000000001

1281.0,-1514.861

1281.6,-1546.4519999999998

1281.9,-1562.885

1280.4,-1484.777

1280.5,-1489.696

1282.0,-1568.465

1282.6,-1603.095

1282.9,-1621.213

1281.1,-1520.016

1281.4,-1535.74

1283.0,-1627.379

1283.6,-1665.833

1283.9,-1686.0680000000002

1282.1,-1574.0970000000002

1282.4,-1591.3229999999999

1284.0,-1692.974

1284.6,-1736.239

1284.9,-1759.144

1283.1,-1633.613

1283.4,-1652.728

1285.6,-1816.341

1285.4,-1799.427

1285.9,-1842.644

1284.1,-1699.964

1284.4,-1721.455

1286.6,-1908.833

1286.9,-1939.5120000000002

1285.1,-1774.929

1286.1,-1860.837

1286.4,-1889.1840000000002

1287.6,-2017.3920000000003

1287.9,-2053.815

1286.5,-1898.931

1287.1,-1960.8229999999999

1287.4,-1994.173

1288.6,-2147.201

1288.9,-2191.335

1287.5,-2005.6799999999998

1288.1,-2079.236

1288.4,-2119.2200000000003

1289.6,-2305.831

1289.9,-2360.6189999999997

1288.5,-2133.0730000000003

1289.1,-2222.312

1289.4,-2271.321

1290.6,-2504.81

1290.4,-2461.035

1290.9,-2574.8720000000003

1289.5,-2288.384

1290.1,-2399.335

1291.6,-2762.629

1291.9,-2855.658

1291.1,-2624.803

1291.4,-2705.1059999999998

1291.5,-2733.445

1292.6,-3110.9539999999997

1292.9,-3240.777

1292.0,-2888.6400000000003

1292.1,-2922.6899999999996

1292.4,-3031.7960000000003

1293.6,-3608.934

1293.9,-3803.128

1293.1,-3335.7309999999998

1293.4,-3492.8730000000005

1293.5,-3549.6769999999997

1294.6,-4381.312

1294.9,-4703.799

1294.0,-3873.986

1294.1,-3948.279

1294.4,-4194.492

1295.6,-5744.314

1295.4,-5394.138

1295.9,-6383.322

1295.1,-4953.312

1294.5,-4285.389

1296.0,-6634.909000000001

1296.6,-8801.905

1296.9,-10631.809000000001

1296.1,-6910.369

1296.4,-7919.659000000001

1297.6,-21949.064

1297.9,-42665.881

1297.1,-12403.234

1297.4,-16709.051

1297.5,-18957.797

1298.6,31572.543999999998

1298.9,17566.117

1298.1,-121836.032

1298.4,64932.53200000001

1298.5,42585.796

1299.6,8322.438

1299.9,6698.746999999999

1299.1,13448.693000000001

1299.4,9857.955

1299.5,9030.89

1300.6,4492.119

1300.4,4978.974999999999

1300.9,3897.3030000000003

1300.0,6278.142

1300.1,5901.9310000000005

1301.0,3727.4

1301.6,2918.113

1301.9,2611.995

1301.1,3569.2309999999998

1301.4,3154.114

1302.6,2060.1770000000006

1302.9,1874.035

1301.5,3032.534

1302.1,2434.103

1302.4,2199.0559999999996

1303.6,1520.1850000000002

1303.9,1395.159

1302.5,2128.001

1303.1,1762.6109999999999

1303.4,1611.5569999999998

1304.6,1149.0569999999998

1304.9,1059.346

1303.5,1565.008

1304.1,1318.8780000000002

1304.4,1213.694

1305.0,1031.2040000000002

1305.6,878.359

1305.4,926.47

1305.9,810.8910000000001

1305.1,1003.8799999999999

1306.0,789.558

1306.6,672.269

1306.9,619.7179999999998

1306.1,768.768

1306.4,709.451

1307.0,603.0019999999998

1307.6,510.21699999999987

1307.9,468.1600000000001

1306.5,690.635

1307.1,586.6630000000001

1308.0,454.7180000000001

1308.6,379.54899999999986

1308.9,345.16099999999983

1307.4,539.7900000000001

1307.5,524.8430000000001

1309.6,272.05499999999995

1309.9,243.44600000000003

1308.1,441.55100000000004

1308.4,403.61199999999985

1308.5,391.46299999999997

1310.0,234.23899999999992

1310.6,182.17700000000002

1310.4,198.95000000000005

1310.9,158.034

1309.1,323.30099999999993

1311.0,150.245

1311.6,106.01800000000003

1311.9,85.40199999999993

1310.1,225.18899999999996

1311.1,142.57900000000006

1311.4,120.29999999999995

1312.0,78.73800000000006

1312.9,22.986999999999966

1311.5,113.10399999999993

1312.1,72.17200000000003

1312.4,53.05000000000007

1313.6,-15.66800000000012

1313.9,-31.12099999999998

1312.5,46.861999999999966

1312.6,40.763000000000034

1313.1,11.551999999999907

1314.6,-64.84499999999991

1314.4,-55.527000000000044

1314.9,-78.37199999999996

1313.4,-5.005999999999858

1313.5,-10.373000000000047

1315.0,-82.76499999999987

1315.6,-107.97699999999998

1315.4,-99.78599999999994

1315.9,-119.8850000000001

1314.1,-41.08100000000002

1316.6,-146.00900000000001

1316.9,-156.539

1315.1,-87.10300000000007

1316.0,-123.75699999999995

1316.1,-127.58000000000004

1317.6,-179.68499999999995

1317.9,-189.03200000000004

1316.4,-138.77199999999993

1317.0,-159.96500000000003

1317.1,-163.35000000000002

1318.6,-209.60599999999988

1318.9,-217.92599999999987

1317.4,-173.26800000000003

1318.1,-195.08200000000005

1318.4,-203.8979999999999

1319.9,-243.675

1319.6,-236.257

1318.5,-206.76799999999997

1319.1,-223.31399999999996

1319.4,-231.16800000000006

1320.4,-255.49100000000004

1320.9,-266.65399999999994

1320.6,-260.03200000000004

1320.1,-248.48199999999997

1321.0,-268.81199999999995

1321.9,-287.172

1321.6,-281.2590000000001

1321.1,-270.94699999999995

1321.4,-277.20300000000003

1322.0,-289.098

1322.9,-305.4840000000001

1322.6,-300.20799999999997

1322.1,-291.0039999999999

1322.4,-296.5889999999999

1323.9,-321.8039999999999

1323.6,-317.105

1322.5,-298.41

1323.1,-308.901

1323.4,-313.8810000000001

1324.4,-329.27400000000006

1324.9,-336.3120000000001

1324.6,-332.14000000000004

1323.5,-315.503

1324.1,-324.845

1325.0,-337.6679999999999

1325.9,-349.15900000000005

1325.6,-345.472

1325.1,-339.00999999999993

1325.4,-342.9339999999999

1326.0,-350.35799999999995

1326.9,-360.476

1326.6,-357.23500000000007

1326.1,-351.54100000000005

1326.4,-355.00199999999995

1327.9,-370.368

1327.6,-367.54299999999995

1326.5,-356.1260000000001

1327.1,-362.56399999999996

1327.4,-365.593

1328.9,-378.93

1328.6,-376.49600000000004

1327.5,-366.5750000000001

1328.1,-372.18399999999997

1328.4,-374.811

1329.9,-386.241

1329.6,-384.176

1328.5,-375.659

1329.1,-380.49

1329.4,-382.738

1330.4,-389.44900000000007

1330.9,-392.37

1330.6,-390.65200000000004

1330.0,-386.9069999999999

1330.1,-387.55999999999995

1331.4,-395.009

1331.9,-397.37300000000005

1331.6,-395.986

1331.1,-393.45899999999995

1332.0,-397.81299999999993

1332.9,-401.30300000000005

1332.6,-400.234

1332.1,-398.243

1332.4,-399.46999999999997

1333.0,-401.6379999999999

1333.9,-404.203

1333.6,-403.4390000000001

1332.5,-399.857

1333.1,-401.963

1334.9,-406.117

1334.6,-405.64500000000004

1333.4,-402.88

1333.5,-403.16400000000004

1334.1,-404.665

1335.9,-407.08399999999995

1335.6,-406.89099999999996

1334.4,-405.2820000000001

1335.1,-406.38499999999993

1335.4,-406.71700000000004

1336.0,-407.12999999999994

1336.9,-407.14000000000004

1336.6,-407.216

1336.1,-407.1660000000001

1336.4,-407.223

1337.0,-407.09799999999996

1337.9,-406.3299999999999

1337.6,-406.662

1336.5,-407.224

1337.1,-407.04600000000005

1338.9,-404.701

1338.6,-405.27200000000005

1337.4,-406.84100000000007

1337.5,-406.75499999999994

1338.1,-406.0679999999999

1339.4,-403.5950000000001

1339.9,-402.3089999999999

1339.6,-403.1020000000001

1338.4,-405.6139999999999

1338.5,-405.44699999999995

1340.6,-400.2209999999999

1340.9,-399.232

1339.1,-404.281

1340.1,-401.7460000000001

1340.4,-400.85099999999994

1341.6,-396.721

1341.4,-397.46500000000003

1341.9,-395.567

1340.5,-400.54

1341.0,-398.89

1342.6,-392.7240000000001

1342.9,-391.454

1341.1,-398.542

1342.0,-395.17400000000004

1342.1,-394.776

1343.6,-388.4069999999999

1343.9,-387.083

1342.4,-393.5570000000001

1343.1,-390.5929999999999

1343.4,-389.286

1343.5,-388.846

1344.6,-384.014

1344.9,-382.7310000000001

1344.1,-386.20000000000005

1344.4,-384.88300000000004

1344.5,-384.44700000000006

1345.6,-379.90200000000004

1345.9,-378.796

1345.1,-381.894

1345.4,-380.679

1346.6,-376.59400000000005

1346.9,-375.8669999999999

1346.1,-378.10599999999994

1346.4,-377.158

1347.6,-374.878

1347.9,-374.839

1347.1,-375.474

1347.4,-375.04400000000004

1347.5,-374.948

1348.0,-374.888

1348.6,-375.96000000000004

1348.9,-377.09000000000003

1348.1,-374.97099999999995

1348.4,-375.44199999999995

1349.0,-377.5700000000001

1349.6,-381.751

1349.5,-380.883

1349.9,-384.832

1348.5,-375.67900000000003

1350.6,-395.40400000000005

1350.9,-401.759

1350.5,-393.555

1349.1,-378.10799999999995

1349.4,-380.08899999999994

1351.6,-422.3900000000001

1351.9,-434.414

1350.1,-387.326

1350.4,-391.82899999999995

1351.1,-406.747

1352.6,-472.914

1351.4,-415.53599999999994

1351.5,-418.856

1352.1,-443.76599999999996

1352.4,-460.1569999999999

1353.6,-568.037

1352.5,-466.33699999999993

1353.1,-512.822

1353.4,-543.729

1353.5,-555.473

1354.6,-758.412

1354.0,-627.9610000000001

1354.1,-645.808

1353.9,-611.36

1354.5,-732.24

1355.6,-1201.704

1355.0,-888.094

1355.1,-928.3539999999998

1354.4,-708.0749999999999

1354.9,-851.338

1356.6,-2745.8319999999994

1356.1,-1689.659

1356.4,-2206.232

1356.9,-4227.657999999999

1357.0,-5108.618

1357.9,7944.231

1357.6,35436.903

1357.1,-6414.388

1357.4,-23636.460000000003

1358.0,6401.023999999999

1358.9,2631.575

1358.6,3173.3910000000005

1357.5,-153590.111

1358.1,5391.9

1359.0,2502.772

1359.5,2071.831

1359.9,1876.634

1359.6,2014.0879999999997

1358.4,3751.774

1360.0,1840.411

1360.9,1650.6949999999997

1360.6,1692.4389999999999

1359.1,2391.7270000000003

1359.4,2137.075

1361.0,1640.313

1361.9,1606.1960000000001

1361.6,1607.321

1360.1,1808.0919999999996

1360.4,1730.702

1362.0,1607.721

1362.6,1634.2490000000003

1361.1,1631.4859999999999

1361.4,1613.3220000000001

1361.5,1609.7580000000003

1363.0,1666.618

1363.6,1734.6490000000001

1362.1,1610.127

1362.4,1622.2930000000001

1362.5,1627.9030000000002

1364.0,1792.254

1364.5,1877.7700000000004

1364.6,1896.6890000000003

1363.1,1676.379

1363.4,1709.48

1365.0,1978.559

1365.5,2095.383

1365.6,2120.7720000000004

1364.1,1808.154

1364.4,1859.46

1366.5,2382.64

1366.6,2415.752

1365.1,2000.6089999999995

1366.0,2229.4870000000005

1366.1,2258.528

1367.5,2756.176

1367.6,2799.232

1366.4,2350.3820000000005

1367.0,2557.1879999999996

1367.1,2594.919

1368.0,2983.514

1368.5,3244.229

1368.6,3300.918

1367.4,2714.249

1368.1,3032.8020000000006

1369.0,3544.822

1369.6,3970.325

1369.1,3610.4309999999996

1369.4,3819.635

1369.5,3893.7930000000006

1370.0,4302.4310000000005

1370.5,4785.999999999999

1370.6,4893.433

1370.1,4392.574

1369.9,4215.267

1371.0,5365.63

1371.5,6071.382

1371.6,6231.223999999999

1371.1,5495.523

1370.4,4682.383

1372.0,6947.489000000001

1372.6,8321.810999999998

1372.1,7148.548

1372.4,7815.432

1372.5,8061.785000000001

1373.0,9523.815

1373.6,12013.520999999999

1373.1,9872.478000000001

1373.4,11066.421

1373.5,11522.663999999999

1374.0,14415.119

1374.6,20205.18

1374.1,15155.546

1374.4,17857.74

1374.5,18964.424

1375.0,27149.461

1375.5,46185.879

1375.6,53479.562

1374.9,25028.522

1375.1,29637.974000000002

1375.4,40597.522000000004

1376.0,139710.711

1376.6,-106764.365

1376.1,230472.598

1376.4,-252455.1

1376.5,-149780.853

1377.0,-50308.347

1377.6,-28637.308

1377.1,-44555.434

1377.4,-33333.447

1377.5,-30796.398

1378.0,-22480.397

1378.6,-17193.086000000003

1378.1,-21359.369000000002

1378.4,-18625.507999999998

1378.5,-17877.235

1379.0,-14957.538

1379.5,-12943.018999999998

1379.6,-12613.016000000001

1379.1,-14497.494

1378.9,-15452.636

1380.5,-10350.167

1380.6,-10157.431

1380.0,-11471.127

1380.1,-11223.24

1379.4,-13294.233

1381.0,-9469.264

1381.6,-8634.303

1381.1,-9315.356000000002

1381.4,-8890.401000000002

1381.5,-8759.839

1382.0,-8177.195

1382.6,-7603.288

1382.1,-8073.025

1382.4,-7781.621999999999

1382.5,-7690.9619999999995

1383.0,-7279.783

1383.6,-6863.976000000001

1383.1,-7205.114

1383.4,-6994.347000000001

1383.5,-6928.203

1384.0,-6624.7660000000005

1384.6,-6312.132

1384.1,-6569.054999999999

1384.4,-6410.782999999999

1384.5,-6360.803999999999

1385.0,-6129.635

1385.5,-5926.032999999999

1385.6,-5888.239

1385.1,-6086.856

1384.9,-6173.514

1386.0,-5745.848999999999

1386.6,-5555.897

1386.1,-5712.317

1386.4,-5616.303

1386.5,-5585.753000000001

1387.0,-5443.0419999999995

1387.6,-5291.647

1387.1,-5416.384

1387.4,-5339.889

1387.5,-5315.500999999999

1388.0,-5201.301

1388.6,-5079.745

1388.1,-5179.923000000001

1388.4,-5118.514

1388.5,-5098.919000000001

1389.0,-5007.08

1389.6,-4909.29

1389.1,-4989.879

1389.4,-4940.472

1389.5,-4924.71

1390.0,-4850.903

1390.5,-4784.8859999999995

1390.6,-4772.558000000001

1358.5,3432.042

1390.1,-4837.098

1391.5,-4673.704

1391.6,-4663.991

1391.0,-4726.006

1391.1,-4715.035

1391.4,-4683.662

1392.5,-4587.009

1392.6,-4579.563

1392.0,-4627.507

1392.1,-4618.964

1391.9,-4636.278

1393.0,-4551.871

1393.6,-4516.38

1393.1,-4545.461

1393.4,-4527.4259999999995

1393.5,-4521.8060000000005

1394.0,-4496.575

1394.6,-4472.407999999999

1394.1,-4492.091

1394.4,-4479.739

1394.5,-4475.984

1395.0,-4459.878000000001

1395.5,-4448.142

1395.6,-4446.31

1395.1,-4457.1849999999995

1394.9,-4462.747

1396.0,-4440.691

1396.5,-4437.479

1396.6,-4437.343

1396.1,-4439.711

1396.4,-4437.784000000001

1397.0,-4438.489

1397.6,-4445.298

1397.1,-4439.197

1397.4,-4442.3460000000005

1397.5,-4443.736000000001

1398.0,-4453.274

1398.6,-4470.501

1398.1,-4455.703

1398.4,-4464.047

1398.5,-4467.184

1399.0,-4485.59

1399.6,-4513.8369999999995

1399.1,-4489.8240000000005

1399.4,-4503.656

1399.5,-4508.65

1400.0,-4536.566

1400.5,-4569.589

1400.6,-4576.832

1400.1,-4542.753

1399.9,-4530.583

1401.0,-4608.021

1401.6,-4661.793

1401.1,-4616.386

1401.4,-4642.901

1401.5,-4652.223

1402.0,-4702.63

1402.6,-4772.035

1402.1,-4713.499000000001

1402.4,-4747.763

1402.5,-4759.7519999999995

1403.0,-4824.2

1403.6,-4912.23

1403.1,-4838.0289999999995

1403.4,-4881.512000000001

1403.5,-4896.692999999999

1404.0,-4978.089

1404.6,-5088.968

1404.1,-4995.523

1404.4,-5050.295

1404.5,-5069.407999999999

1405.5,-5286.966

1405.1,-5193.833

1405.6,-5311.65

1405.0,-5171.876

1404.9,-5150.425

1406.0,-5416.464

1406.6,-5593.9890000000005

1406.1,-5444.277

1406.4,-5531.887000000001

1406.5,-5562.553000000001

1407.0,-5727.925

1407.1,-5763.594999999999

1407.4,-5876.333

1407.5,-5915.934

1406.9,-5693.157999999999

1407.9,-6085.442999999999

1408.1,-6177.454

1408.4,-6325.626

1408.5,-6377.944

1408.6,-6431.825000000001

1408.9,-6603.526

1409.0,-6664.356

1409.5,-6999.299

1409.6,-7073.139

1409.1,-6727.117

1409.4,-6927.886

1410.6,-7975.668000000001

1410.5,-7869.451000000001

1410.1,-7483.175

1410.4,-7767.309000000001

1409.9,-7310.439

1411.6,-9326.157

1411.1,-8576.982

1411.4,-9005.5

1411.5,-9162.002999999999

1410.9,-8321.259

1412.6,-11547.803

1412.1,-10283.572

1412.4,-10996.544

1412.5,-11263.649

1411.9,-9870.452

1413.6,-15847.058

1413.1,-13291.505

1413.4,-14694.432999999999

1413.5,-15245.169999999998

1412.9,-12520.418000000001

1414.5,-25571.631000000005

1414.6,-27583.769999999997

1414.1,-19946.838

1414.4,-23855.252

1413.9,-18042.022

1415.5,-114874.094

1415.6,-184447.702

1415.0,-40918.578

1415.1,-46771.572

1414.9,-36424.003000000004

1416.6,33116.605

1416.5,37890.99599999999

1416.0,121970.1

1416.1,85250.80399999999

1416.4,44162.621999999996

1417.5,14879.16

1417.6,13956.118999999999

1417.0,21734.849

1417.1,19953.337

1416.9,23829.738

1418.1,10527.206000000002

1418.4,9095.07

1418.5,8687.635

1586.5,-2400.8630000000003

1417.4,15915.088000000002

1419.0,7029.196

1419.5,5816.1630000000005

1419.1,6757.364

1419.4,6031.956

1419.6,5611.679

1420.0,4890.815

1420.5,4162.011

1420.1,4731.508000000001

1420.6,4034.469

1419.9,5057.879000000001

1421.5,3088.322

1421.0,3573.4139999999998

1421.1,3469.047

1421.6,3001.38

1420.4,4295.103

1422.0,2681.8060000000005

1422.1,2608.2920000000004

1422.4,2401.209

1422.5,2336.335

1422.6,2273.385

1423.0,2039.226

1423.1,1984.7350000000001

1423.4,1829.9569999999999

1423.5,1781.074

1423.6,1733.46

1424.0,1554.759

1424.5,1354.7909999999997

1424.1,1512.81

1424.4,1392.8980000000001

1424.6,1317.564

1425.0,1176.871

1425.5,1017.5819999999999

1425.1,1143.62

1425.4,1048.09

1425.6,987.7090000000002

1426.0,874.176

1426.1,847.196

1426.4,769.3710000000002

1426.5,744.417

1426.6,719.936

1427.0,626.4689999999999

1427.1,604.158

1427.4,539.582

1427.5,518.8080000000001

1427.6,498.394

1428.0,420.158

1428.1,401.4119999999999

1428.4,347.0

1428.5,329.448

1429.0,245.765

1429.5,168.332

1429.1,229.80099999999993

1429.4,183.35299999999995

1430.6,16.819999999999936

1430.0,96.481

1430.5,29.63499999999999

1431.6,-102.19000000000005

1431.0,-32.70900000000006

1431.1,-44.67700000000002

1431.4,-79.63800000000003

1431.5,-90.98699999999997

1432.6,-206.711

1432.0,-145.584

1432.5,-196.83599999999996

1432.1,-156.09199999999998

1432.4,-186.83800000000008

1433.6,-299.23199999999997

1433.0,-245.039

1433.1,-254.33799999999997

1433.4,-281.586

1433.5,-290.46099999999996

1434.6,-381.711

1434.0,-333.33299999999997

1434.5,-373.867

1434.1,-341.61999999999995

1434.4,-365.938

1435.6,-455.70799999999997

1435.0,-412.251

1435.5,-448.65200000000004

1435.1,-419.68399999999997

1435.4,-441.523

1436.6,-522.485

1436.0,-483.22299999999996

1436.1,-489.931

1436.4,-509.656

1436.5,-516.101

1437.0,-547.4110000000001

1437.6,-583.067

1437.1,-553.4939999999999

1437.4,-571.404

1437.5,-577.2620000000001

1438.0,-605.7600000000001

1438.6,-638.3

1438.1,-611.3059999999999

1438.4,-627.646

1438.5,-632.996

1439.5,-684.019

1439.6,-688.8860000000001

1439.0,-659.057

1439.1,-664.135

1440.0,-707.954

1440.6,-735.412

1440.5,-730.928

1360.5,1710.402

1440.1,-712.623

1441.6,-778.375

1441.5,-774.227

1441.0,-753.001

1441.1,-757.312

1441.4,-770.0459999999999

1442.6,-818.197

1442.5,-814.345

1442.0,-794.66

1442.1,-798.655

1443.0,-833.327

1443.6,-855.234

1443.1,-837.042

1443.4,-848.0339999999999

1443.5,-851.647

1444.0,-869.341

1444.6,-889.799

1444.5,-886.446

1444.1,-872.808

1445.6,-922.1569999999999

1445.5,-919.014

1445.0,-902.9929999999999

1445.1,-906.238

1446.0,-934.536

1446.6,-952.5409999999999

1446.1,-937.5830000000001

1446.4,-946.613

1446.5,-949.586

1447.0,-964.1890000000001

1447.6,-981.154

1447.1,-967.058

1447.4,-975.5640000000001

1447.5,-978.3679999999999

1448.0,-992.143

1448.6,-1008.173

1448.1,-994.8520000000001

1448.4,-1002.8879999999999

1448.5,-1005.538

1449.9,-1041.167

1449.0,-1018.569

1449.6,-1033.7530000000002

1449.5,-1031.255

1449.1,-1021.133

1450.9,-1065.0819999999999

1450.0,-1043.613

1450.6,-1058.032

1450.5,-1055.659

1450.1,-1046.047

1451.0,-1067.409

1451.6,-1081.135

1451.1,-1069.7240000000002

1451.4,-1076.603

1451.5,-1078.875

1452.0,-1090.071

1452.6,-1103.1689999999999

1452.1,-1092.279

1452.4,-1098.843

1452.5,-1101.01

1453.0,-1111.7060000000001

1453.6,-1124.232

1453.1,-1113.8159999999998

1453.4,-1120.092

1453.5,-1122.1670000000001

1454.4,-1140.442

1454.9,-1150.304

1454.0,-1132.405

1454.6,-1144.411

1454.5,-1142.4299999999998

1455.4,-1159.97

1455.9,-1169.45

1455.6,-1163.784

1455.5,-1161.8809999999999

1454.1,-1134.4270000000001

1456.9,-1187.882

1456.0,-1171.325

1456.6,-1182.423

1455.0,-1152.2530000000002

1455.1,-1154.194

1457.9,-1205.6599999999999

1457.0,-1189.688

1457.6,-1200.392

1457.5,-1198.624

1456.1,-1173.191

1458.9,-1222.845

1458.0,-1207.4050000000002

1458.6,-1217.749

1457.1,-1191.488

1457.4,-1196.8490000000002

1459.4,-1231.229

1459.9,-1239.484

1459.0,-1224.5320000000002

1459.6,-1234.5459999999998

1459.5,-1232.8899999999999

1460.9,-1255.626

1460.0,-1241.1190000000001

1460.6,-1250.8329999999999

1459.1,-1226.2150000000001

1460.1,-1242.751

1461.9,-1271.315

1461.0,-1257.2150000000001

1461.6,-1266.653

1460.4,-1247.615

1460.5,-1249.226

1462.9,-1286.59

1462.0,-1272.8609999999999

1462.6,-1282.049

1461.1,-1258.7980000000002

1461.4,-1263.525

1463.9,-1301.488

1463.0,-1288.096

1463.6,-1297.055

1462.1,-1274.402

1462.4,-1279.002

1464.4,-1308.806

1464.9,-1316.042

1464.5,-1310.259

1464.6,-1311.71

1463.1,-1289.599

1465.4,-1323.2

1465.9,-1330.285

1465.0,-1317.48

1465.5,-1324.623

1465.6,-1326.042

1466.9,-1344.245

1466.5,-1338.693

1466.6,-1340.085

1465.1,-1318.9140000000002

1466.0,-1331.6929999999998

1467.9,-1357.951

1467.5,-1352.498

1467.6,-1353.865

1466.1,-1333.098

1466.4,-1337.298

1468.5,-1366.063

1468.6,-1367.4070000000002

1467.0,-1345.6259999999997

1467.1,-1347.0059999999999

1468.0,-1359.3089999999997

1469.4,-1378.0880000000002

1469.9,-1384.7

1469.5,-1379.414

1469.6,-1380.7379999999998

1468.1,-1360.6639999999998

1470.4,-1391.2669999999998

1470.9,-1397.791

1470.5,-1392.575

1470.6,-1393.8809999999999

1469.1,-1374.098

1471.9,-1410.722

1471.6,-1406.8580000000002

1470.1,-1387.3319999999999

1471.1,-1400.3890000000001

1471.4,-1404.274

1471.5,-1405.567

1472.9,-1423.5140000000001

1472.1,-1413.291

1472.4,-1417.134

1472.5,-1418.413

1472.6,-1419.689

1473.9,-1436.188

1473.1,-1426.058

1473.4,-1429.865

1473.5,-1431.132

1474.0,-1437.4499999999998

1474.5,-1443.744

1474.6,-1445.0

1474.4,-1442.487

1474.9,-1448.7620000000002

1475.6,-1457.516

1475.5,-1456.268

1475.4,-1455.019

1475.9,-1461.256

1474.1,-1438.711

1476.9,-1473.6879999999999

1475.1,-1451.2669999999998

1476.1,-1463.747

1476.4,-1467.479

1476.5,-1468.722

1477.5,-1481.1239999999998

1477.9,-1486.075

1477.1,-1476.1680000000001

1477.4,-1479.886

1476.6,-1469.964

1478.9,-1498.435

1478.1,-1488.549

1478.4,-1492.257

1478.5,-1493.493

1477.6,-1482.3629999999998

1479.5,-1505.8449999999998

1479.4,-1504.6100000000001

1479.9,-1510.7849999999999

1479.0,-1499.67

1479.1,-1500.9050000000002

1480.5,-1518.199

1480.4,-1516.9630000000002

1480.9,-1523.143

1480.0,-1512.021

1480.1,-1513.2559999999999

1481.5,-1530.57

1481.9,-1535.527

1481.0,-1524.3809999999999

1481.1,-1525.618

1481.4,-1529.331

1482.4,-1541.735

1482.9,-1547.955

1482.5,-1542.978

1482.1,-1538.009

1481.6,-1531.809

1483.1,-1550.4470000000001

1483.4,-1554.19

1483.5,-1555.4389999999999

1482.6,-1544.221

1483.6,-1556.689

1484.4,-1566.7150000000001

1484.9,-1573.0100000000002

1484.5,-1567.973

1484.1,-1562.949

1484.6,-1569.231

1485.4,-1579.329

1485.9,-1585.6750000000002

1485.5,-1580.596

1485.1,-1575.5339999999999

1485.6,-1581.864

1486.9,-1598.4589999999998

1486.1,-1588.2220000000002

1486.4,-1592.051

1486.5,-1593.33

1486.6,-1594.6100000000001

1487.9,-1611.38

1487.5,-1606.194

1487.1,-1601.031

1487.4,-1604.901

1487.6,-1607.4879999999998

1488.9,-1624.462

1488.5,-1619.2089999999998

1488.0,-1612.681

1488.1,-1613.984

1488.4,-1617.9

1489.4,-1631.069

1489.9,-1637.726

1489.5,-1632.397

1489.0,-1625.7800000000002

1489.1,-1627.1

1490.4,-1644.434

1490.9,-1651.196

1490.5,-1645.782

1490.0,-1639.063

1490.1,-1640.4030000000002

1491.9,-1664.899

1491.5,-1659.388

1491.0,-1652.555

1491.1,-1653.918

1491.4,-1658.0170000000003

1492.4,-1671.846

1492.9,-1678.862

1492.5,-1673.244

1492.0,-1666.283

1492.1,-1667.6709999999998

1493.9,-1693.116

1493.5,-1687.378

1493.1,-1681.6889999999999

1493.4,-1685.95

1492.6,-1674.644

1494.4,-1700.3609999999999

1494.9,-1707.6910000000003

1494.5,-1701.82

1494.1,-1696.004

1493.6,-1688.807

1495.4,-1715.112

1495.9,-1722.6260000000002

1495.5,-1716.607

1495.1,-1710.649

1494.6,-1703.283

1496.9,-1737.958

1496.5,-1731.774

1496.1,-1725.659

1496.4,-1730.24

1495.6,-1718.105

1497.9,-1753.732

1497.5,-1747.3670000000002

1497.1,-1741.076

1497.4,-1745.7870000000003

1496.6,-1733.314

1498.9,-1769.9939999999997

1498.1,-1756.9430000000002

1498.4,-1761.798

1498.5,-1763.427

1497.6,-1748.951

1499.4,-1778.326

1499.9,-1786.8000000000002

1499.5,-1780.009

1499.1,-1773.3100000000002

1498.6,-1765.0610000000001

1500.9,-1804.2110000000002

1500.1,-1790.232

1500.4,-1795.426

1500.5,-1797.1689999999999

1499.6,-1781.6979999999999

1501.4,-1813.163

1501.9,-1822.2930000000001

1501.5,-1814.975

1501.1,-1807.771

1500.6,-1798.92

1502.9,-1841.1260000000002

1502.5,-1833.4969999999998

1502.1,-1825.997

1502.4,-1831.6109999999999

1501.6,-1816.7930000000001

1503.9,-1860.7979999999998

1503.1,-1844.99

1503.4,-1850.8519999999999

1503.5,-1852.8220000000001

1502.6,-1835.3920000000003

1503.6,-1854.8029999999999

1504.4,-1870.9809999999998

1504.9,-1881.413

1504.5,-1873.047

1504.1,-1864.842

1504.6,-1875.123

1505.4,-1892.11

1505.9,-1903.0879999999997

1505.5,-1894.282

1505.0,-1883.531

1505.1,-1885.659

1506.4,-1914.366

1506.9,-1925.963

1506.5,-1916.659

1506.0,-1905.319

1506.1,-1907.562

1507.0,-1928.322

1507.9,-1950.199

1507.5,-1940.33

1507.1,-1930.695

1507.4,-1937.9

1508.0,-1952.7039999999997

1508.9,-1975.989

1508.1,-1955.226

1508.4,-1962.886

1508.5,-1965.4720000000002

1509.0,-1978.661

1509.4,-1989.536

1509.9,-2003.5620000000001

1509.5,-1992.3029999999999

1509.1,-1981.353

1510.0,-2006.4270000000001

1510.9,-2033.1950000000002

1510.5,-2021.0750000000003

1510.1,-2009.314

1510.4,-2018.102

1511.0,-2036.284

1511.9,-2065.223

1511.1,-2039.3970000000002

1511.4,-2048.886

1511.5,-2052.1

1512.0,-2068.573

1512.9,-2100.0570000000002

1512.5,-2085.7569999999996

1512.1,-2071.95

1512.4,-2082.2599999999998

1513.9,-2138.2120000000004

1513.5,-2122.514

1513.0,-2103.714

1513.1,-2107.404

1513.4,-2118.683

1514.4,-2158.73

1514.9,-2180.332

1514.5,-2162.96

1363.5,1721.759

1514.0,-2142.233

1515.4,-2203.127

1515.9,-2227.239

1515.5,-2207.8399999999997

1514.1,-2146.296

1515.0,-2184.791

1516.9,-2280.005

1516.5,-2258.1150000000002

1515.1,-2189.3

1516.0,-2232.232

1516.1,-2237.285

1517.4,-2309.012

1517.9,-2340.046

1517.0,-2285.656

1517.5,-2315.0480000000002

1516.4,-2252.812

1518.0,-2346.519

1518.9,-2409.275

1518.1,-2353.085

1518.4,-2373.368

1518.5,-2380.332

1519.0,-2416.797

1519.4,-2448.1259999999997

1519.9,-2490.343

1519.5,-2456.284

1519.1,-2424.44

1520.0,-2499.234

1520.9,-2587.036

1520.5,-2546.1769999999997

1520.1,-2508.285

1520.4,-2536.44

1521.0,-2597.76

1521.9,-2704.95

1521.5,-2654.773

1521.1,-2608.699

1521.4,-2642.8920000000003

1522.0,-2718.205

1522.9,-2852.728

1522.5,-2789.2940000000003

1522.1,-2731.7659999999996

1522.4,-2774.3940000000002

1523.0,-2869.623

1523.9,-3044.452

1523.1,-2886.968

1523.4,-2941.8959999999997

1523.5,-2961.241

1524.0,-3066.852

1524.4,-3163.827

1524.9,-3304.733

1524.5,-3190.106

1524.1,-3089.954

1525.0,-3336.0389999999998

1525.9,-3680.811

1525.1,-3368.527

1525.4,-3473.823

1525.5,-3511.8059999999996

1526.0,-3727.932

1526.9,-4276.33

1526.5,-4000.557

1526.1,-3777.285

1526.4,-3940.456

1527.0,-4355.748

1527.9,-5371.36

1527.5,-4838.535

1527.1,-4440.152999999999

1527.4,-4728.546

1528.0,-5533.977

1528.9,-8075.912

1528.5,-6624.352000000001

1528.1,-5711.639999999999

1528.4,-6359.311000000001

1529.0,-8583.625

1529.4,-11807.259

1529.9,-26192.389

1529.5,-13149.976

1529.1,-9179.496000000001

1530.4,55177.005999999994

1530.9,11390.847

1530.5,32419.864

1530.0,-35977.159

1530.1,-58822.96000000001

1531.4,5669.607000000001

1531.9,3412.6180000000004

1531.5,5074.078

1531.0,9636.969000000001

1531.1,8295.465

1532.6,1862.8999999999996

1532.0,3115.651

1532.9,1448.29

1532.5,2025.505

1532.1,2850.6859999999997

1533.0,1330.049

1533.9,555.096

1532.4,2203.148

1533.1,1220.041

1533.4,931.5610000000001

1534.0,491.6980000000001

1534.9,41.947

1534.5,218.77499999999986

1533.5,847.1189999999998

1534.1,431.54200000000003

1535.0,2.29099999999994

1535.4,-141.31100000000004

1535.9,-293.00199999999995

1535.5,-173.88599999999997

1534.4,268.19100000000003

1535.1,-35.76999999999998

1536.9,-530.191

1536.5,-444.03999999999996

1536.0,-320.27799999999996

1536.1,-346.655

1536.4,-420.8330000000001

1537.4,-624.957

1537.9,-708.0

1537.5,-642.426

1537.0,-550.207

1537.1,-569.6690000000001

1538.9,-847.066

1538.5,-795.184

1538.0,-723.4019999999999

1538.1,-738.4369999999999

1538.4,-781.481

1539.4,-906.0519999999999

1539.9,-959.472

1539.5,-917.1519999999999

1539.0,-859.354

1539.1,-871.3889999999999

1540.6,-1026.451

1540.4,-1008.1510000000001

1540.9,-1052.763

1540.5,-1017.3799999999999

1540.0,-969.5630000000001

1541.6,-1109.421

1541.4,-1093.8609999999999

1541.9,-1131.9

1541.5,-1101.7

1541.0,-1061.248

1542.6,-1180.7330000000002

1542.4,-1167.2640000000001

1542.9,-1200.272

1542.5,-1174.045

1541.1,-1069.597

1543.6,-1243.042

1543.0,-1206.616

1543.9,-1260.279

1542.0,-1139.176

1542.1,-1146.348

1544.0,-1265.891

1544.9,-1313.664

1543.1,-1212.88

1543.4,-1231.2

1543.5,-1237.156

1545.6,-1347.804

1545.0,-1318.692

1545.4,-1338.2939999999999

1545.9,-1361.729

1545.5,-1343.073

1546.0,-1366.284

1546.9,-1405.463

1546.1,-1370.796

1546.4,-1384.086

1546.5,-1388.436

1547.0,-1409.63

1547.9,-1445.633

1547.5,-1429.951

1547.1,-1413.761

1547.4,-1425.952

1548.0,-1449.4769999999999

1548.9,-1482.8400000000001

1548.1,-1453.294

1548.4,-1464.574

1548.5,-1468.279

1549.0,-1486.4180000000001

1549.9,-1517.567

1549.1,-1489.971

1549.4,-1500.488

1549.5,-1503.9479999999999

1550.0,-1520.9189999999999

1550.4,-1534.125

1550.9,-1550.204

1550.1,-1524.2510000000002

1550.6,-1540.612

1551.0,-1553.365

1551.9,-1581.069

1551.1,-1556.51

1551.4,-1565.84

1551.5,-1568.917

1552.6,-1601.762

1552.0,-1584.0680000000002

1552.9,-1610.425

1552.1,-1587.053

1552.4,-1595.92

1553.0,-1613.286

1553.6,-1630.196

1553.5,-1627.4070000000002

1553.4,-1624.607

1553.9,-1638.492

1554.0,-1641.2359999999999

1554.6,-1657.4740000000002

1554.9,-1665.4569999999999

1553.1,-1616.135

1554.1,-1643.968

1555.1,-1670.7330000000002

1555.6,-1683.763

1555.0,-1668.1

1555.5,-1681.174

1555.4,-1678.578

1556.0,-1694.0339999999999

1555.9,-1691.478

1556.9,-1716.689

1556.5,-1706.694

1556.1,-1696.5809999999997

1557.0,-1719.1709999999998

1557.4,-1729.029

1557.9,-1741.208

1557.5,-1731.477

1556.4,-1704.1770000000001

1558.0,-1743.626

1558.9,-1765.138

1557.1,-1721.6460000000002

1558.1,-1746.038

1558.4,-1753.241

1559.0,-1767.502

1559.9,-1788.565

1558.5,-1755.6309999999999

1559.1,-1769.8609999999999

1559.4,-1776.909

1560.5,-1802.415

1560.4,-1800.1170000000002

1560.9,-1811.5710000000001

1559.5,-1779.2489999999998

1560.0,-1790.884

1561.0,-1813.8519999999999

1561.9,-1834.2269999999999

1561.1,-1816.129

1561.4,-1822.9379999999999

1561.5,-1825.203

1562.0,-1836.475

1562.4,-1845.442

1562.9,-1856.593

1562.1,-1838.721

1562.5,-1847.6770000000001

1563.6,-1872.1090000000002

1563.9,-1878.728

1563.0,-1858.815

1563.1,-1861.037

1563.4,-1867.6860000000001

1564.6,-1894.113

1564.9,-1900.683

1564.0,-1880.931

1564.1,-1883.1310000000003

1564.4,-1889.725

1565.1,-1905.056

1565.6,-1915.971

1565.4,-1911.6080000000002

1565.9,-1922.505

1565.0,-1902.8709999999999

1566.6,-1937.726

1566.4,-1933.382

1566.9,-1944.241

1566.0,-1924.683

1566.1,-1926.8590000000002

1567.5,-1957.255

1567.1,-1948.58

1567.6,-1959.4230000000002

1567.4,-1955.087

1567.9,-1965.9270000000001

1567.0,-1946.4099999999999

1568.0,-1968.094

1568.9,-1987.603

1568.1,-1970.261

1568.4,-1976.7640000000001

1568.5,-1978.931

1569.5,-2000.618

1569.0,-1989.772

1569.6,-2002.7889999999998

1569.9,-2009.305

1568.6,-1981.0990000000002

1570.0,-2011.478

1570.5,-2022.352

1570.1,-2013.6509999999998

1570.6,-2024.529

1570.4,-2020.1750000000002

1571.5,-2044.163

1571.6,-2046.351

1570.9,-2031.065

1571.9,-2052.917

1571.0,-2033.246

1572.0,-2055.109

1572.6,-2068.286

1572.4,-2063.889

1572.9,-2074.893

1572.5,-2066.086

1573.0,-2077.098

1573.6,-2090.364

1573.9,-2097.0209999999997

1572.1,-2057.302

1573.1,-2079.306

1574.0,-2099.243

1574.6,-2112.617

1574.5,-2110.383

1574.4,-2108.151

1574.9,-2119.331

1575.0,-2121.5730000000003

1575.6,-2135.071

1575.4,-2130.563

1575.9,-2141.852

1575.5,-2132.816

1576.0,-2144.116

1576.6,-2157.756

1576.9,-2164.611

1575.1,-2123.817

1576.1,-2146.383

1577.0,-2166.901

1577.5,-2178.3940000000002

1577.6,-2180.7

1577.4,-2176.09

1577.9,-2187.638

1578.0,-2189.956

1578.6,-2203.93

1578.5,-2201.593

1578.9,-2210.96

1577.1,-2169.195

1579.0,-2213.309

1579.6,-2227.475

1579.5,-2225.106

1579.9,-2234.605

1578.1,-2192.277

1580.1,-2239.375

1580.6,-2251.364

1580.5,-2248.959

1580.4,-2246.557

1580.9,-2258.601

1581.0,-2261.021

1581.6,-2275.624

1581.5,-2273.181

1581.9,-2282.978

1580.0,-2236.9880000000003

1582.0,-2285.438

1582.6,-2300.2839999999997

1582.5,-2297.8

1582.4,-2295.319

1582.9,-2307.766

1583.0,-2310.268

1583.6,-2325.376

1583.9,-2332.992

1582.1,-2287.902

1583.1,-2312.7740000000003

1584.0,-2335.54

1584.6,-2350.929

1584.5,-2348.352

1584.9,-2358.6890000000003

1583.4,-2320.322

1585.0,-2361.286

1585.6,-2376.974

1585.5,-2374.347

1585.4,-2371.724

1585.9,-2384.889

1586.0,-2387.5370000000003

1586.6,-2403.545

1586.9,-2411.623

1585.1,-2363.888

1586.1,-2390.192

1587.0,-2414.328

1587.6,-2430.675

1587.5,-2427.935

1587.4,-2425.202

1587.9,-2438.9269999999997

1588.5,-2455.598

1588.9,-2466.837

1587.1,-2417.037

1588.0,-2441.69

1588.1,-2444.46

1589.5,-2483.8869999999997

1589.4,-2481.0289999999995

1589.9,-2495.387

1588.4,-2452.804

1589.0,-2469.661

1590.6,-2515.7749999999996

1590.0,-2498.278

1590.5,-2512.842

1590.4,-2509.915

1590.9,-2524.6180000000004

1591.0,-2527.58

1591.1,-2530.549

1591.5,-2542.501

1591.6,-2545.507

1591.9,-2554.571

1592.1,-2560.652

1592.4,-2569.8309999999997

1592.5,-2572.9069999999997

1592.6,-2575.991

1592.9,-2585.289

1593.1,-2591.5280000000002

1593.4,-2600.948

1593.5,-2604.106

1593.6,-2607.2709999999997

1593.9,-2616.8160000000003

1594.1,-2623.224

1594.4,-2632.899

1594.5,-2636.1409999999996

1594.6,-2639.3940000000002

1594.9,-2649.202

1595.1,-2655.786

1595.4,-2665.732

1595.5,-2669.0660000000003

1595.6,-2672.41

1595.9,-2682.4970000000003

1596.1,-2689.2690000000002

1596.4,-2699.4999999999995

1596.5,-2702.931

1596.6,-2706.371

1596.9,-2716.754

1597.1,-2723.725

1597.4,-2734.261

1597.5,-2737.793

1597.6,-2741.3370000000004

1597.9,-2752.03

1598.1,-2759.2129999999997

1598.4,-2770.07

1598.5,-2773.7119999999995

1598.6,-2777.364

1598.9,-2788.3889999999997

1599.1,-2795.796

1599.4,-2806.994

1599.5,-2810.75

1599.6,-2814.517

1599.9,-2825.8940000000002

1239.4,-484.2900000000001

1254.4,-1099.135

1264.4,-2673.207

1309.4,291.9960000000001

1105.1,-1906.702

1106.6,-2068.819

1352.9,-495.322

1362.9,1657.511

1363.9,1776.952

1364.9,1957.15

1365.4,2070.683

1365.9,2201.206

1366.9,2520.432

1367.9,2935.5550000000003

1368.4,3189.129

1368.9,3481.1389999999997

1370.9,5240.7390000000005

1371.4,5918.281

1371.9,6755.832

1372.9,9196.136999999999

1129.1,-1409.993

1130.6,-1503.2199999999998

1375.9,99972.221

1376.9,-57848.26500000001

1377.9,-23738.184

1379.9,-11732.812

1380.4,-10552.377

1380.9,-9629.958

1381.9,-8285.194

1382.9,-7356.824

1383.9,-6682.052

1385.4,-5964.76

1385.9,-5780.182

1386.9,-5470.3060000000005

1387.9,-5223.151

1388.9,-5024.657999999999

1144.1,-1814.753

1389.9,-4865.017

1390.4,-4797.4980000000005

1390.9,-4737.2390000000005

1146.1,-2098.3140000000003

1147.1,-2351.576

1392.4,-4594.671

1392.9,-4558.485000000001

1393.9,-4501.245

1395.4,-4450.144

1395.9,-4441.841

1396.9,-4437.947999999999

1152.1,1034.0200000000002

1397.9,-4451.019

1153.1,96.28499999999997

1398.9,-4481.542

1155.1,-559.982

1400.4,-4562.562

1400.9,-4599.885

1401.9,-4692.029

1402.9,-4810.691999999999

1403.9,-4961.049999999999

1160.1,-1049.092

1405.4,-5262.858

1405.9,-5389.314

1163.1,-1192.276

1164.1,-1234.6889999999999

1165.1,-1277.1

1166.6,-1344.8939999999998

1167.6,-1397.304

1415.4,-83738.004

1415.9,211915.353

1171.6,-2689.752

1172.6,-507.835

1417.9,11705.907000000001

1173.6,-1129.402

1418.9,7318.4349999999995

1174.6,-1302.241

1175.1,-1358.414

1175.6,-1406.63

1420.9,3681.8839999999996

1176.6,-1492.6019999999999

1421.4,3178.384

1421.9,2757.7459999999996

1177.6,-1576.5040000000001

1422.9,2095.268

1178.6,-1667.784

1423.9,1597.7579999999998

1179.6,-1775.5700000000002

1424.9,1210.8670000000002

1185.1,-5652.384

1189.1,90.36799999999994

1456.4,-1178.751

1458.4,-1214.324

1463.4,-1294.0839999999998

1468.4,-1364.716

1229.6,-27018.344

1248.6,-926.056

1544.4,-1287.7089999999998

1554.4,-1652.103

1569.4,-1998.448

1571.4,-2041.9779999999998

1573.4,-2085.9359999999997

1576.4,-2153.2

1578.4,-2199.26

1579.4,-2222.7400000000002

1581.4,-2270.74

1584.4,-2345.7799999999997

1586.4,-2398.187

1100.8,-1652.7600000000002

1100.2,-1627.67

1100.7,-1648.4940000000001

1101.7,-1693.1039999999998

1101.8,-1697.84

1101.2,-1670.2240000000002

1101.3,-1674.699

1102.7,-1743.438

1102.8,-1748.884

1102.2,-1717.404

1102.3,-1722.462

1103.7,-1802.2350000000001

1103.2,-1771.569

1103.8,-1808.7160000000001

1103.3,-1777.4830000000002

1104.2,-1835.972

1104.3,-1843.145

1104.7,-1873.4540000000002

1104.8,-1881.471

1105.2,-1915.535

1105.3,-1924.596

1105.7,-1963.33

1105.8,-1973.6970000000001

1106.7,-2082.517

1106.2,-2018.3180000000002

1106.3,-2030.345

1106.8,-2096.691

1107.2,-2158.7479999999996

1107.7,-2251.098

1107.3,-2175.7690000000002

1107.8,-2271.9939999999997

1108.2,-2365.712

1108.8,-2546.694

1108.3,-2392.071

1108.7,-2512.285

1109.2,-2707.068

1109.8,-3047.718

1109.3,-2754.04

1109.7,-2979.543

1110.7,-4078.066

1110.2,-3389.345

1110.8,-4276.453

1110.3,-3497.5580000000004

1111.2,-5483.796

1111.8,-12382.202

1111.3,-5961.674

1111.7,-9970.038

1112.7,5733.1140000000005

1112.2,85270.09400000001

1112.8,4623.794

1112.3,25466.072

1113.7,1097.511

1113.2,2308.1900000000005

1113.8,943.398

1113.3,1981.7450000000001

1114.7,98.45499999999993

1114.2,476.86400000000015

1114.8,39.749999999999886

1114.3,387.2259999999999

1115.7,-341.7510000000001

1115.2,-157.07600000000002

1115.8,-372.75199999999995

1115.3,-198.59699999999998

1116.7,-592.182

1116.2,-481.8759999999999

1116.8,-611.5139999999999

1116.3,-505.97599999999994

1117.7,-755.7159999999999

1117.2,-681.5640000000001

1117.3,-697.47

1117.8,-769.077

1118.2,-818.4469999999999

1118.7,-872.409

1118.3,-829.871

1118.8,-882.326

1119.2,-919.503

1119.7,-961.133

1119.3,-928.229

1119.8,-968.901

1120.2,-998.355

1120.3,-1005.346

1120.7,-1031.9859999999999

1120.8,-1038.34

1121.2,-1062.665

1121.3,-1068.4940000000001

1121.8,-1096.298

1122.7,-1141.666

1122.8,-1146.399

1122.2,-1117.124

1122.3,-1122.156

1123.7,-1186.851

1123.8,-1191.141

1123.3,-1169.312

1123.2,-1164.824

1124.7,-1228.381

1124.3,-1212.1019999999999

1124.8,-1232.3960000000002

1124.2,-1207.97

1125.7,-1267.845

1125.8,-1271.736

1125.2,-1248.279

1125.3,-1252.212

1126.7,-1306.7579999999998

1126.3,-1291.157

1126.8,-1310.683

1126.2,-1287.272

1127.7,-1346.862

1127.2,-1326.533

1127.3,-1330.545

1127.8,-1351.023

1128.2,-1368.0790000000002

1128.7,-1390.616

1128.3,-1372.464

1128.8,-1395.331

1129.7,-1442.324

1129.2,-1415.075

1129.3,-1420.267

1129.8,-1448.2150000000001

1130.7,-1511.425

1130.3,-1480.647

1130.8,-1520.03

1130.2,-1473.703

1131.7,-1625.739

1131.2,-1559.451

1131.3,-1570.876

1131.8,-1642.487

1132.7,-1926.975

1132.2,-1729.054

1132.3,-1757.743

1132.8,-1992.35

1133.7,13363.814999999999

1133.2,-2524.835

1133.3,-2837.202

1133.8,2460.968

1407.6,-5956.605

1134.7,-926.858

1134.2,-440.87099999999987

1134.3,-597.592

1134.8,-974.102

1135.7,-1202.665

1135.3,-1128.685

1135.8,-1217.512

1135.2,-1105.099

1136.7,-1316.238

1136.2,-1267.569

1136.3,-1278.294

1136.8,-1324.736

1137.7,-1390.097

1137.2,-1355.857

1137.3,-1363.0510000000002

1137.8,-1396.501

1138.8,-1455.743

1138.7,-1450.088

1138.2,-1421.065

1139.8,-1511.2269999999999

1139.7,-1505.696

1139.2,-1478.071

1140.8,-1567.807

1140.7,-1561.99

1140.2,-1533.507

1141.8,-1629.3129999999999

1141.7,-1622.8310000000001

1141.2,-1591.605

1142.7,-1692.277

1142.8,-1699.885

1142.2,-1656.187

1143.7,-1775.728

1143.8,-1785.127

1143.2,-1731.8239999999998

1143.3,-1740.223

1144.7,-1881.6

1144.2,-1825.143

1144.8,-1893.905

1145.7,-2024.778

1145.2,-1947.173

1145.3,-1961.618

1146.2,-2118.66

1146.7,-2235.252

1146.3,-2139.903

1146.8,-2262.102

1147.2,-2384.821

1147.7,-2584.846

1147.3,-2420.041

1147.8,-2633.339

1148.2,-2867.7070000000003

1148.7,-3300.9230000000002

1148.3,-2939.102

1148.8,-3417.004

1149.2,-4052.5650000000005

1149.7,-5689.661999999999

1149.3,-4274.939

1149.8,-6280.755999999999

1150.2,-12090.242

1150.7,22113.534

1150.3,-16534.857

1150.8,13011.85

1151.2,4287.639

1151.7,1857.3490000000002

1151.3,3545.501

1151.8,1602.678

1152.2,889.941

1152.7,368.327

1152.3,762.131

1152.8,291.43000000000006

1153.8,-221.75199999999995

1153.2,40.854999999999905

1153.7,-184.72900000000004

1153.3,-10.638000000000034

1154.8,-499.402

1154.2,-350.2410000000001

1154.7,-477.385

1154.3,-378.24800000000005

1155.3,-596.3879999999999

1155.8,-676.136

1155.2,-578.549

1155.7,-661.323

1156.3,-743.173

1156.8,-800.5820000000001

1156.2,-730.6189999999999

1156.7,-789.7549999999999

1157.8,-894.6289999999999

1157.2,-841.062

1157.7,-886.22

1157.3,-850.54

1158.3,-934.0289999999999

1158.8,-969.636

1158.7,-962.7819999999999

1158.2,-926.477

1159.3,-1002.152

1159.8,-1032.132

1159.2,-995.8679999999999

1159.7,-1026.316

1160.2,-1054.5929999999998

1160.7,-1081.084

1160.3,-1060.023

1161.7,-1129.94

1161.2,-1106.108

1161.3,-1110.962

1162.2,-1152.8200000000002

1162.7,-1174.961

1162.3,-1157.301

1163.2,-1196.562

1163.7,-1217.813

1163.3,-1200.834

1164.2,-1238.904

1164.7,-1260.0300000000002

1164.3,-1243.119

1165.2,-1281.407

1165.7,-1303.28

1165.3,-1285.734

1166.7,-1349.775

1166.2,-1325.945

1166.3,-1330.604

1167.2,-1375.263

1167.7,-1403.103

1167.3,-1380.617

1168.2,-1434.312

1168.7,-1470.487

1168.3,-1441.085

1169.2,-1514.3110000000001

1169.7,-1570.7359999999999

1169.3,-1524.366

1170.2,-1650.096

1170.7,-1778.3180000000002

1170.3,-1670.471

1171.7,-3100.045

1171.2,-2044.615

1171.3,-2139.792

1172.7,-646.8929999999999

1172.2,1531.4070000000002

1172.3,484.3079999999999

1173.2,-998.969

1173.7,-1153.5480000000002

1173.3,-1038.258

1174.8,-1326.006

1174.7,-1314.377

1174.2,-1247.068

1174.3,-1262.047

1175.2,-1368.545

1175.8,-1424.5819999999999

1175.7,-1415.6779999999999

1175.3,-1378.402

1176.8,-1509.2069999999999

1176.7,-1500.907

1176.2,-1459.1080000000002

1176.3,-1467.546

1177.2,-1542.5349999999999

1177.8,-1593.8980000000001

1177.3,-1550.9450000000002

1178.2,-1629.8400000000001

1178.7,-1677.651

1178.8,-1687.692

1178.3,-1639.116

1179.2,-1729.79

1179.8,-1800.114

1179.7,-1787.691

1179.3,-1740.8580000000002

1180.2,-1853.1729999999998

1180.8,-1945.2240000000002

1180.7,-1928.654

1180.3,-1867.3780000000002

1181.2,-2017.4859999999999

1181.8,-2148.679

1181.7,-2124.5080000000003

1181.3,-2037.245

1182.2,-2257.035

1182.8,-2466.651

1182.7,-2426.723

1182.3,-2287.517

1183.2,-2653.4089999999997

1183.8,-3054.7700000000004

1183.7,-2973.873

1183.3,-2708.35

1184.8,-4571.207

1184.7,-4318.325999999999

1184.2,-3464.925

1184.3,-3596.5930000000003

1185.2,-6184.607999999999

1185.8,-18832.194

1185.7,-13588.044

1185.3,-6861.125

1186.2,24072.466

1186.8,4198.519

1186.7,5018.11

1186.3,14492.608

1187.7,1247.9719999999998

1187.2,2326.0699999999997

1187.8,1105.2659999999998

1187.3,2042.616

1188.2,665.1809999999998

1188.7,298.82500000000005

1188.3,579.1840000000002

1188.8,241.19000000000005

1189.2,46.293000000000006

1189.7,-139.024

1189.8,-170.38

1189.3,4.841000000000122

1190.2,-281.35299999999995

1190.7,-394.5390000000001

1190.8,-414.48799999999994

1190.3,-305.994

1191.7,-564.434

1191.2,-487.06699999999995

1191.8,-578.4369999999999

1191.3,-503.61400000000003

1192.7,-687.431

1192.2,-630.354

1192.8,-697.961

1192.3,-642.407

1193.2,-737.55

1193.7,-782.1030000000001

1193.3,-746.8679999999999

1193.8,-790.443

1194.2,-822.148

1194.7,-858.505

1194.8,-865.3929999999999

1194.3,-829.693

1195.2,-891.818

1195.7,-922.601

1195.8,-928.4929999999999

1195.3,-898.1610000000001

1196.2,-951.279

1196.7,-978.197

1196.8,-983.3960000000001

1196.3,-956.793

1197.2,-1003.6510000000001

1197.7,-1027.894

1197.8,-1032.616

1197.3,-1008.5889999999999

1198.2,-1051.143

1198.7,-1073.598

1198.3,-1055.692

1198.8,-1078.01

1199.2,-1095.439

1199.7,-1116.838

1199.8,-1121.079

1199.3,-1099.75

1200.2,-1137.961

1200.7,-1158.977

1200.8,-1163.183

1200.3,-1142.167

1201.2,-1180.065

1201.7,-1201.42

1201.3,-1184.308

1201.8,-1205.742

1202.7,-1245.872

1202.2,-1223.267

1202.8,-1250.5120000000002

1202.3,-1227.717

1203.7,-1294.7959999999998

1203.2,-1269.571

1203.3,-1274.4769999999999

1203.8,-1300.071

1204.7,-1352.4029999999998

1204.8,-1358.9080000000001

1204.2,-1322.13

1204.3,-1327.9180000000001

1205.7,-1427.339

1205.2,-1386.835

1205.8,-1436.416

1205.3,-1394.372

1206.7,-1541.929

1206.2,-1477.1080000000002

1206.8,-1557.558

1206.3,-1488.6100000000001

1207.7,-1780.2730000000001

1207.2,-1633.575

1207.8,-1821.698

1207.3,-1657.063

1208.7,-3014.433

1208.2,-2071.1859999999997

1208.3,-2169.722

1208.8,-3545.883

1209.7,-47.10399999999993

1209.2,8514.287

1209.3,2884.342

1209.8,-238.83299999999997

1210.7,-885.1110000000001

1210.2,-654.2479999999999

1210.8,-915.82

1210.3,-715.132

1211.2,-1012.0260000000001

1211.8,-1109.535

1211.3,-1031.27

1212.7,-1207.225

1212.3,-1168.4279999999999

1212.8,-1216.101

1213.2,-1249.106

1213.7,-1286.125

1213.3,-1256.833

1213.8,-1293.107

1214.2,-1319.984

1214.7,-1351.807

1214.8,-1358.001

1214.3,-1326.482

1215.2,-1382.391

1215.7,-1412.33

1215.8,-1418.283

1215.3,-1388.414

1216.2,-1442.0950000000003

1216.7,-1472.084

1216.8,-1478.1399999999999

1216.3,-1448.063

1217.2,-1502.653

1217.7,-1534.137

1217.8,-1540.5729999999999

1217.3,-1508.866

1218.2,-1566.872

1218.7,-1601.2060000000001

1218.3,-1573.598

1219.2,-1637.518

1219.7,-1676.23

1219.3,-1645.0529999999999

1220.8,-1772.388

1220.2,-1717.834

1220.7,-1762.9009999999998

1221.7,-1866.3429999999998

1221.8,-1877.8759999999997

1222.2,-1926.616

1222.3,-1939.509

1222.8,-2008.842

1222.7,-1994.279

1223.2,-2071.057

1223.3,-2087.6949999999997

1223.7,-2159.23

1223.8,-2178.485

1224.7,-2383.249

1224.2,-2261.874

1224.3,-2284.488

1224.8,-2410.264

1225.7,-2709.4230000000002

1225.2,-2529.433

1225.3,-2562.37

1225.8,-2750.579

1226.7,-3235.188

1226.2,-2937.1130000000003

1226.3,-2990.147

1226.8,-3306.288

1227.7,-4238.066

1227.2,-3643.3599999999997

1227.3,-3743.8819999999996

1227.8,-4391.335999999999

1228.7,-6950.437

1228.2,-5187.704000000001

1228.3,-5450.219

1228.8,-7501.601000000001

1229.7,-42985.35999999999

1229.2,-11368.061000000002

1229.3,-13193.473999999998

1229.8,-110248.487

1230.7,6986.719999999999

1230.2,18996.144

1230.3,14400.287

1230.8,6121.084

1231.7,2565.465

1231.2,3951.4310000000005

1231.3,3597.3549999999996

1231.8,2373.8400000000006

1232.7,1254.2910000000002

1232.2,1770.5579999999998

1232.3,1650.5000000000002

1232.8,1171.9550000000004

1233.7,622.0590000000002

1233.2,891.4460000000001

1233.3,831.397

1233.8,576.263

1234.7,247.74300000000005

1234.2,413.80999999999995

1234.3,377.679

1234.8,218.46399999999994

1235.7,-1.2159999999998945

1235.2,111.99900000000014

1235.3,87.75300000000004

1235.8,-21.656999999999925

1236.7,-179.84799999999996

1236.2,-97.23900000000003

1236.3,-114.73299999999995

1236.8,-195.01599999999996

1237.7,-315.1139999999999

1237.2,-251.79000000000008

1237.3,-265.08799999999997

1237.8,-326.8889999999999

1238.7,-421.785

1238.2,-371.37699999999995

1238.3,-381.89300000000003

1238.8,-431.252

1239.7,-508.641

1239.2,-467.2880000000001

1239.3,-475.8689999999999

1239.8,-516.4699999999999

1240.7,-581.233

1240.2,-546.457

1240.3,-553.6410000000001

1240.8,-587.8619999999999

1241.7,-643.25

1241.2,-613.383

1241.3,-619.53

1241.8,-648.976

1242.7,-697.2460000000001

1242.2,-671.1229999999999

1242.3,-676.48

1243.7,-745.051

1243.2,-721.8290000000001

1243.3,-726.5770000000001

1244.7,-788.0210000000001

1244.2,-767.0699999999999

1244.3,-771.3409999999999

1245.7,-827.183

1245.2,-808.023

1245.3,-811.9200000000001

1246.7,-863.3489999999999

1246.2,-845.598

1246.3,-849.1980000000001

1247.7,-897.17

1247.2,-880.517

1247.3,-883.887

1248.7,-929.1910000000001

1248.2,-913.375

1248.3,-916.567

1249.7,-959.884

1249.2,-944.6759999999999

1249.3,-947.738

1250.7,-989.6790000000001

1250.2,-974.8679999999999

1251.7,-1018.989

1251.2,-1004.369

1251.3,-1007.297

1252.7,-1048.234

1252.2,-1033.592

1252.3,-1036.516

1253.7,-1077.8719999999998

1253.2,-1062.972

1253.3,-1065.937

1254.7,-1108.4409999999998

1254.2,-1093.001

1254.3,-1096.062

1255.7,-1140.617

1255.2,-1124.278

1255.3,-1127.502

1256.7,-1175.314

1256.2,-1157.581

1256.3,-1161.0610000000001

1257.7,-1213.845

1257.2,-1193.995

1257.3,-1197.8629999999998

1258.2,-1235.143

1258.3,-1239.607

1258.7,-1258.25

1259.2,-1283.6399999999999

1259.3,-1289.045

1259.7,-1311.954

1260.2,-1344.079

1260.3,-1351.065

1260.7,-1381.289

1261.2,-1425.474

1261.3,-1435.381

1261.7,-1479.5810000000001

1262.2,-1548.4679999999998

1262.3,-1564.6770000000001

1262.7,-1640.768

1263.2,-1773.4440000000002

1263.3,-1807.53

1263.7,-1985.069

1264.2,-2386.331

1264.3,-2515.156

1264.7,-3476.6920000000005

1265.2,-20154.865999999998

1265.3,41818.706999999995

1265.7,1875.661

1266.2,223.47900000000004

1266.3,84.31899999999996

1266.7,-280.43100000000004

1267.2,-528.315

1267.3,-563.821

1267.7,-678.2629999999999

1268.2,-780.485

1268.3,-797.289

1268.7,-855.927

1269.2,-914.887

1269.3,-925.248

1269.7,-963.019

1270.2,-1003.693

1270.3,-1011.1350000000001

1270.7,-1039.044

1271.2,-1070.492

1271.3,-1076.4060000000002

1271.7,-1099.025

1272.2,-1125.35

1272.3,-1130.4

1272.7,-1149.994

1273.2,-1173.354

1273.3,-1177.9009999999998

1274.2,-1217.411

1274.3,-1221.6770000000001

1275.2,-1259.366

1275.3,-1263.4989999999998

1276.2,-1300.509

1276.3,-1304.6190000000001

1277.2,-1341.832

1277.3,-1346.007

1278.2,-1384.175

1278.3,-1388.495

1279.2,-1428.3179999999998

1279.3,-1432.8609999999999

1280.2,-1475.048

1280.3,-1479.895

1281.2,-1525.214

1281.3,-1530.454

1281.7,-1551.88

1282.2,-1579.783

1282.3,-1585.525

1282.7,-1609.071

1283.7,-1672.4989999999998

1283.2,-1639.915

1283.3,-1646.286

1284.7,-1743.775

1284.2,-1707.0390000000002

1284.3,-1714.202

1285.7,-1824.982

1285.8,-1833.748

1285.2,-1782.983

1285.3,-1791.1480000000001

1286.7,-1918.8940000000002

1286.8,-1929.119

1286.2,-1870.1409999999998

1286.3,-1879.589

1287.7,-2029.3139999999999

1287.8,-2041.452

1287.2,-1971.75

1287.3,-1982.8649999999998

1288.7,-2161.615

1288.8,-2176.323

1288.2,-2092.31

1288.3,-2105.635

1289.7,-2323.6760000000004

1289.8,-2341.9339999999997

1289.2,-2238.297

1289.3,-2254.63

1290.7,-2527.554

1290.3,-2439.9610000000002

1290.8,-2550.9

1290.2,-2419.4

1291.7,-2792.6980000000003

1291.8,-2823.693

1291.2,-2650.819

1291.3,-2677.576

1292.7,-3152.6699999999996

1292.8,-3195.915

1292.2,-2957.861

1292.3,-2994.21

1293.7,-3670.8059999999996

1293.2,-3386.032

1293.3,-3438.371

1294.8,-4590.007

1294.7,-4482.691000000001

1294.2,-4026.268

1294.3,-4108.234

1295.8,-6152.632

1295.7,-5940.334999999999

1295.2,-5090.494

1295.3,-5237.1

1296.8,-9935.083999999999

1296.7,-9330.878

1296.2,-7213.274

1296.3,-7547.9439999999995

1297.8,-32355.686

1297.7,-26123.385000000002

1297.2,-13553.104000000001

1297.3,-14956.864

1298.8,20663.902

1298.2,-2261825.016

1298.3,134650.752

1298.7,25014.913

1299.8,7172.098

1299.2,12011.064

1299.3,10836.148

1299.7,7708.787

1300.3,5257.258

1300.8,4080.297

1300.2,5563.437000000001

1300.7,4277.957

1301.8,2708.36

1301.2,3421.6220000000003

1301.3,3283.5480000000002

1301.7,2810.237

1302.8,1933.383

1302.2,2351.8340000000003

1302.3,2273.5800000000004

1302.7,1995.3709999999996

1303.8,1435.344

1303.2,1710.2440000000001

1303.3,1659.9319999999998

1303.7,1476.9920000000002

1304.8,1088.341

1304.2,1282.6460000000002

1304.3,1247.604

1304.7,1118.231

1305.3,951.5450000000001

1305.8,832.786

1305.2,977.3380000000002

1305.7,855.2679999999998

1306.8,636.8249999999999

1306.2,748.499

1306.3,728.7319999999997

1306.7,654.3369999999999

1307.8,481.8849999999999

1307.2,570.6890000000001

1307.3,555.0690000000002

1307.7,495.9000000000001

1308.8,356.4050000000001

1308.2,428.6489999999999

1308.3,416.0060000000001

1308.7,367.865

1309.8,252.81499999999994

1309.2,312.6729999999999

1309.3,302.24

1309.7,262.35

1310.8,165.95199999999988

1310.2,216.29399999999998

1310.3,207.548

1310.7,173.99800000000005

1311.8,92.17000000000007

1311.2,135.03600000000006

1311.3,127.61000000000001

1311.7,99.04100000000005

1312.8,28.826999999999884

1312.2,65.70299999999997

1312.3,59.33000000000004

1312.7,34.752000000000066

1313.8,-26.040000000000077

1313.2,5.956000000000131

1313.3,0.4370000000001255

1313.7,-20.888999999999896

1314.8,-73.92099999999994

1314.2,-45.960000000000036

1314.3,-50.77499999999998

1314.7,-69.41300000000012

1315.8,-115.96500000000003

1315.2,-91.38499999999999

1315.3,-95.61199999999997

1315.7,-111.99700000000007

1316.8,-153.07100000000003

1316.2,-131.35700000000008

1316.3,-135.087

1316.7,-149.56100000000004

1317.8,-185.95300000000003

1317.2,-166.6959999999999

1317.3,-170.00099999999998

1317.7,-182.83799999999997

1318.8,-215.18399999999997

1318.2,-198.05499999999995

1318.3,-200.99400000000003

1318.7,-212.41100000000006

1319.8,-241.22999999999996

1319.2,-225.96200000000005

1319.3,-228.57999999999993

1319.7,-238.75799999999992

1320.8,-264.47200000000004

1320.2,-250.84500000000014

1320.3,-253.18100000000004

1320.7,-262.26500000000004

1321.8,-285.22300000000007

1321.2,-273.05600000000004

1321.3,-275.1409999999999

1321.7,-283.253

1322.8,-303.74500000000006

1322.2,-292.887

1322.3,-294.74799999999993

1322.7,-301.9869999999999

1323.8,-320.25600000000003

1323.2,-310.58

1323.3,-312.23999999999995

1323.7,-318.69

1324.8,-334.938

1324.2,-326.3380000000001

1324.3,-327.81499999999994

1324.7,-333.54799999999994

1325.8,-347.94599999999997

1325.2,-340.33399999999995

1325.3,-341.64199999999994

1325.7,-346.7170000000001

1326.8,-359.409

1326.2,-352.709

1326.3,-353.863

1326.7,-358.3290000000001

1327.8,-369.44

1327.2,-363.5880000000001

1327.3,-364.5979999999999

1327.7,-368.499

1328.8,-378.13199999999995

1328.2,-373.07200000000006

1328.3,-373.94800000000004

1328.7,-377.32

1329.8,-385.56500000000005

1329.2,-381.25199999999995

1329.3,-382.001

1329.7,-384.8760000000001

1330.8,-391.809

1330.2,-388.20200000000006

1330.3,-388.83099999999996

1330.7,-391.236

1331.8,-396.92099999999994

1331.2,-393.986

1331.3,-394.50300000000004

1331.7,-396.45899999999995

1332.8,-400.9560000000001

1332.2,-398.6619999999999

1332.3,-399.07099999999997

1332.7,-400.6

1333.8,-403.959

1333.2,-402.27899999999994

1333.3,-402.584

1333.7,-403.7039999999999

1334.8,-405.96899999999994

1334.2,-404.87899999999996

1334.3,-405.0849999999999

1334.7,-405.81200000000007

1335.8,-407.02799999999996

1335.2,-406.50500000000005

1335.3,-406.61500000000007

1335.7,-406.96400000000006

1336.8,-407.17400000000004

1336.2,-407.19499999999994

1336.3,-407.21300000000014

1336.7,-407.20000000000005

1337.8,-406.44900000000007

1337.2,-406.98599999999993

1337.3,-406.91799999999995

1337.7,-406.5590000000001

1338.8,-404.898

1338.2,-405.92500000000007

1338.3,-405.77400000000006

1338.7,-405.08900000000006

1339.8,-402.58000000000004

1339.2,-404.06

1339.3,-403.83099999999996

1339.7,-402.8449999999999

1340.8,-399.56699999999995

1340.2,-401.45399999999995

1340.3,-401.1550000000001

1340.7,-399.897

1341.8,-395.9559999999999

1341.2,-398.1890000000001

1341.3,-397.8299999999999

1341.7,-396.34100000000007

1342.8,-391.88000000000005

1342.2,-394.37299999999993

1342.3,-393.966

1342.7,-392.30400000000003

1343.8,-387.5249999999999

1343.2,-390.158

1343.3,-389.72300000000007

1343.7,-387.966

1344.8,-383.15500000000003

1344.2,-385.7600000000001

1344.3,-385.3210000000001

1344.7,-383.5830000000001

1345.8,-379.1550000000001

1345.2,-381.48300000000006

1345.3,-381.079

1345.7,-379.524

1346.8,-376.093

1346.2,-377.778

1346.3,-377.46200000000005

1346.7,-376.3350000000001

1347.8,-374.822

1347.2,-375.30899999999997

1347.3,-375.16499999999996

1347.7,-374.8350000000001

1348.8,-376.663

1348.2,-375.089

1348.3,-375.24600000000004

1348.7,-376.287

1349.8,-383.72100000000006

1349.2,-378.7039999999999

1349.3,-379.36300000000006

1349.7,-382.69500000000005

1350.8,-399.49799999999993

1350.2,-388.721

1350.3,-390.21900000000005

1350.7,-397.3829999999999

1351.8,-430.1550000000001

1351.2,-409.49300000000005

1351.3,-412.41900000000004

1351.7,-426.15199999999993

1352.8,-487.37499999999994

1352.2,-448.89500000000004

1352.3,-454.352

1352.7,-479.9169999999999

1353.8,-595.899

1353.2,-522.457

1353.3,-532.7429999999999

1353.7,-581.486

1354.8,-817.689

1354.2,-665.019

1354.3,-685.7239999999999

1354.7,-786.811

1355.8,-1360.5520000000001

1355.2,-972.575

1355.3,-1021.3050000000001

1355.7,-1276.413

1356.8,-3594.0960000000005

1356.2,-1834.677

1356.3,-2004.6309999999999

1356.7,-3117.223

1357.8,10590.607000000002

1357.2,-8545.177

1357.3,-12633.795999999998

1357.7,16163.517

1358.8,2782.26

1358.2,4681.801

1358.3,4155.984

1358.7,2960.344

1359.8,1917.25

1359.2,2295.2999999999993

1359.3,2211.055

1359.7,1962.8379999999995

1360.8,1662.75

1360.2,1779.263

1360.3,1753.568

1360.7,1676.6130000000003

1361.8,1605.5910000000001

1361.2,1624.107

1361.3,1618.08

1361.7,1605.9500000000003

1362.8,1649.0699999999997

1362.2,1613.3780000000002

1362.3,1617.4429999999998

1362.7,1641.3110000000001

1363.8,1762.2490000000003

1363.2,1686.7820000000002

1363.3,1697.819

1363.7,1748.148

1364.8,1936.373

1364.2,1824.656

1364.3,1841.7569999999996

1365.8,2173.67

1365.2,2023.3060000000003

1365.3,2046.661

1366.8,2484.624

1366.2,2288.3450000000003

1366.3,2318.9570000000003

1367.8,2888.8830000000003

1367.2,2633.652

1367.3,2673.419

1368.8,3419.307

1368.2,3083.468

1368.3,3135.56

1369.8,4130.946

1369.2,3678.0459999999994

1369.3,3747.751

1370.8,5120.575000000001

1370.2,4485.841

1370.3,4582.388

1371.8,6572.945000000001

1371.2,5630.7119999999995

1371.3,5771.516

1372.8,8887.625999999998

1372.2,7359.701999999999

1372.3,7581.714999999998

1373.8,13115.981999999998

1373.2,10244.188000000002

1373.3,10641.281

1374.8,23199.412

1374.2,15968.327

1374.3,16864.563

1375.3,36179.223

1375.8,77672.78

1375.2,32598.509999999995

1376.8,-68160.269

1376.2,646683.7010000001

1376.3,-819505.759

1377.8,-25159.298

1377.2,-40021.757999999994

1377.3,-36357.039

1378.8,-15986.917

1378.2,-20353.999

1378.3,-19447.314000000002

1379.8,-12009.460000000001

1379.2,-14068.93

1379.3,-13668.744999999999

1380.3,-10764.763

1380.8,-9797.883999999998

1380.2,-10988.099

1381.8,-8397.228000000001

1381.2,-9167.824999999999

1381.3,-9026.288999999999

1382.8,-7436.343

1382.2,-7972.49

1382.3,-7875.411999999999

1383.8,-6740.9710000000005

1383.2,-7132.714999999999

1383.3,-7062.49

1384.8,-6218.530000000001

1384.2,-6514.856999999999

1384.3,-6462.1179999999995

1385.3,-6004.451999999999

1385.8,-5815.340999999999

1385.2,-6045.14

1386.8,-5498.192

1386.2,-5679.564

1386.3,-5647.566

1387.8,-5245.484

1387.2,-5390.316000000001

1387.3,-5364.822

1388.8,-5042.624

1388.2,-5159.0070000000005

1388.3,-5138.54

1458.1,-1209.143

1389.8,-4879.45

1389.2,-4973.05

1389.3,-4956.583

1390.3,-4810.401000000001

1390.8,-4748.739

1391.8,-4645.281

1391.2,-4704.324

1391.3,-4693.867

1392.8,-4565.304

1392.2,-4610.644

1392.3,-4602.548

1393.8,-4506.101000000001

1393.2,-4539.250999999999

1393.3,-4533.240000000001

1394.8,-4465.791

1394.2,-4487.790999999999

1394.3,-4483.674

1395.3,-4452.317999999999

1395.8,-4443.161

1395.2,-4454.665

1396.8,-4437.577

1396.2,-4438.898999999999

1396.3,-4438.2570000000005

1397.8,-4448.939

1397.2,-4440.077

1397.3,-4441.126

1398.8,-4477.679

1398.2,-4458.307

1398.3,-4461.088

1399.8,-4524.802

1399.2,-4494.245

1399.3,-4498.855

1400.3,-4555.749

1400.8,-4591.977

1401.8,-4681.692

1401.2,-4624.987

1401.3,-4633.823

1402.8,-4797.499

1402.2,-4724.6410000000005

1402.3,-4736.061000000001

1403.8,-4944.401

1403.2,-4852.187

1403.3,-4866.678000000001

1404.8,-5129.464

1404.2,-5013.361999999999

1404.3,-5031.616999999999

1405.3,-5239.31

1405.8,-5362.8060000000005

1406.8,-5659.264

1406.2,-5472.771

1406.3,-5501.967000000001

1407.8,-6041.317999999999

1407.2,-5800.198

1407.3,-5837.7660000000005

1408.8,-6544.546000000001

1408.2,-6225.438

1408.3,-6274.811

1409.8,-7228.578

1409.2,-6791.896000000001

1409.3,-6858.786

1410.8,-8201.301

1410.2,-7574.37

1410.3,-7669.017000000001

1411.8,-9679.729

1411.2,-8713.436

1411.3,-8856.133

1412.8,-12174.161000000002

1412.2,-10507.743999999999

1412.3,-10745.013

1412.7,-11850.676000000001

1413.8,-17235.564

1413.2,-13722.464

1413.3,-14188.617

1414.7,-29975.211999999996

1414.8,-32864.234

1414.2,-21082.568000000003

1414.3,-22373.946000000004

1415.2,-54708.08900000001

1415.7,-478391.78299999994

1415.3,-66081.003

1415.8,775494.4110000001

1416.7,29360.577

1416.8,26328.58

1416.2,65299.798

1416.3,52766.408

1417.7,13128.489

1417.3,17085.926

1417.8,12382.225

1417.2,18419.821

1418.7,7956.249999999999

1418.8,7626.8009999999995

1418.2,10010.551

1418.3,9534.721

1464.1,-1304.424

1419.7,5417.643

1419.8,5233.276

1419.2,6501.4220000000005

1419.3,6260.019

1420.7,3912.136

1420.8,3794.7029999999995

1420.2,4579.432

1420.3,4434.110000000001

1421.7,2917.4

1421.8,2836.2349999999997

1421.2,3368.557

1421.3,3271.736

1422.7,2212.2760000000003

1422.8,2152.928

1422.2,2537.091

1422.3,2468.097

1423.7,1687.0659999999998

1423.8,1641.847

1423.2,1931.732

1423.3,1880.158

1424.7,1281.1860000000001

1424.8,1245.629

1424.2,1471.8739999999998

1424.3,1431.915

1425.7,958.4490000000001

1425.8,929.7850000000001

1425.2,1111.087

1425.3,1079.2509999999997

1426.7,695.913

1426.8,672.3349999999998

1426.2,820.7460000000001

1426.3,794.809

1427.7,478.3309999999999

1427.8,458.6089999999999

1427.2,582.2460000000001

1427.3,560.7239999999999

1428.7,295.177

1428.8,278.447

1428.2,382.9749999999999

1428.3,364.841

1429.7,138.957

1429.8,124.5909999999999

1429.2,214.0820000000001

1429.3,198.601

1430.2,69.17200000000003

1430.7,4.183000000000106

1430.3,55.8069999999999

1430.8,-8.283000000000015

1431.7,-113.24799999999999

1431.8,-124.16500000000002

1431.2,-56.48599999999999

1431.3,-68.13900000000001

1432.7,-216.46700000000004

1432.8,-226.10500000000002

1432.2,-166.46800000000002

1432.3,-176.716

1433.7,-307.90299999999996

1433.8,-316.476

1433.2,-263.52700000000004

1433.3,-272.61

1434.7,-389.46900000000005

1434.8,-397.14399999999995

1434.2,-349.81699999999995

1434.3,-357.92199999999997

1435.7,-462.69300000000004

1435.8,-469.60499999999996

1435.2,-427.041

1435.3,-434.31899999999996

1436.7,-528.807

1436.8,-535.067

1436.2,-496.57

1436.3,-503.145

1437.7,-588.819

1437.8,-594.517

1437.2,-559.5200000000001

1437.3,-565.49

1438.7,-643.557

1438.8,-648.768

1438.2,-616.8019999999999

1438.3,-622.2470000000001

1439.7,-693.713

1439.8,-698.499

1439.2,-669.17

1439.3,-674.1610000000001

1440.7,-739.861

1440.8,-744.2760000000001

1440.2,-717.256

1440.3,-721.8499999999999

1441.7,-782.493

1441.8,-786.578

1441.2,-761.5889999999999

1441.3,-765.835

1442.2,-802.6210000000001

1442.7,-822.02

1442.3,-806.558

1442.8,-825.816

1443.7,-858.797

1443.8,-862.336

1443.2,-840.732

1443.3,-844.396

1444.7,-893.13

1444.8,-896.439

1444.2,-876.252

1444.3,-879.673

1445.7,-925.2819999999999

1445.3,-912.667

1445.8,-928.386

1445.2,-909.4639999999999

1446.7,-955.48

1446.8,-958.4000000000001

1446.2,-940.611

1446.3,-943.6209999999999

1447.7,-983.925

1447.8,-986.6800000000001

1447.2,-969.91

1447.3,-972.7460000000001

1448.7,-1010.7919999999999

1448.8,-1013.399

1448.2,-997.5459999999999

1448.3,-1000.224

1449.7,-1036.237

1449.8,-1038.708

1449.2,-1023.6840000000001

1449.3,-1026.221

1450.7,-1060.393

1450.8,-1062.7440000000001

1450.2,-1048.468

1450.3,-1050.877

1451.7,-1083.385

1451.8,-1085.624

1451.2,-1072.028

1451.3,-1074.3210000000001

1452.7,-1105.317

1452.8,-1107.4569999999999

1452.2,-1094.477

1452.3,-1096.665

1453.7,-1126.288

1453.8,-1128.3360000000002

1453.2,-1115.917

1453.3,-1118.009

1454.7,-1146.3829999999998

1454.8,-1148.3470000000002

1454.2,-1136.44

1454.3,-1138.4450000000002

1455.2,-1156.127

1455.7,-1165.68

1455.3,-1158.0520000000001

1455.8,-1167.569

1456.7,-1184.25

1456.8,-1186.069

1456.2,-1175.051

1456.3,-1176.904

1457.7,-1202.154

1457.8,-1203.9099999999999

1457.2,-1193.281

1457.3,-1195.068

1458.7,-1219.453

1458.8,-1221.1509999999998

1458.2,-1210.876

1458.3,-1212.603

1459.7,-1236.1970000000001

1459.8,-1237.8429999999998

1459.2,-1227.891

1459.3,-1229.562

1460.7,-1252.4360000000001

1460.8,-1254.033

1460.2,-1244.376

1460.3,-1245.998

1461.7,-1268.211

1461.8,-1269.7649999999999

1461.2,-1260.378

1461.3,-1261.954

1462.7,-1283.567

1462.2,-1275.9389999999999

1462.3,-1277.473

1462.8,-1285.08

1463.7,-1298.536

1463.2,-1291.097

1463.3,-1292.592

1464.7,-1313.1570000000002

1464.2,-1305.888

1465.2,-1320.346

1465.7,-1327.46

1466.7,-1341.474

1466.2,-1334.501

1466.3,-1335.9009999999998

1467.7,-1355.228

1467.2,-1348.3829999999998

1468.7,-1368.7490000000003

1468.2,-1362.016

1468.3,-1363.367

1469.7,-1382.0610000000001

1469.2,-1375.4299999999998

1469.3,-1376.76

1470.7,-1395.186

1470.2,-1388.645

1470.3,-1389.957

1471.7,-1408.147

1471.2,-1401.6860000000001

1471.3,-1402.9810000000002

1472.7,-1420.966

1472.8,-1422.241

1472.2,-1414.574

1472.3,-1415.8539999999998

1473.7,-1433.662

1473.8,-1434.926

1473.2,-1427.328

1473.3,-1428.5969999999998

1474.7,-1446.255

1474.3,-1441.228

1474.8,-1447.509

1474.2,-1439.9699999999998

1475.8,-1460.01

1475.7,-1458.763

1475.2,-1452.519

1475.3,-1453.769

1476.8,-1472.447

1476.7,-1471.2060000000001

1476.2,-1464.991

1476.3,-1466.236

1477.8,-1484.838

1477.7,-1483.6

1477.2,-1477.408

1477.3,-1478.647

1478.8,-1497.2

1478.7,-1495.964

1478.2,-1489.785

1478.3,-1491.022

1479.3,-1503.376

1479.8,-1509.55

1479.2,-1502.1399999999999

1479.7,-1508.315

1480.3,-1515.727

1480.8,-1521.908

1480.7,-1520.671

1480.2,-1514.492

1481.8,-1534.288

1481.7,-1533.049

1481.2,-1526.8560000000002

1481.3,-1528.0929999999998

1482.8,-1546.71

1482.7,-1545.4650000000001

1482.2,-1539.251

1482.3,-1540.493

1483.8,-1559.19

1483.7,-1557.9390000000003

1483.2,-1551.694

1483.3,-1552.942

1484.8,-1571.749

1484.7,-1570.489

1484.2,-1564.2040000000002

1484.3,-1565.4590000000003

1485.8,-1584.404

1485.7,-1583.133

1485.2,-1576.798

1485.3,-1578.063

1486.8,-1597.174

1486.7,-1595.892

1486.2,-1589.497

1486.3,-1590.774

1487.8,-1610.0819999999999

1487.7,-1608.784

1487.2,-1602.32

1487.3,-1603.609

1488.7,-1621.8310000000001

1488.8,-1623.1460000000002

1488.2,-1615.2869999999998

1488.3,-1616.592

1478.6,-1494.7289999999998

1489.7,-1635.057

1489.3,-1629.744

1489.8,-1636.391

1489.2,-1628.42

1490.7,-1648.484

1490.3,-1643.088

1490.8,-1649.839

1490.2,-1641.7440000000001

1491.7,-1662.139

1491.8,-1663.518

1491.2,-1655.2820000000002

1491.3,-1656.6480000000001

1492.2,-1669.06

1492.7,-1676.047

1492.3,-1670.451

1492.8,-1677.4539999999997

1493.7,-1690.241

1493.8,-1691.676

1493.2,-1683.106

1493.3,-1684.527

1479.6,-1507.08

1494.7,-1704.7489999999998

1494.8,-1706.219

1494.2,-1697.453

1494.3,-1698.905

1495.7,-1719.609

1495.8,-1721.116

1495.2,-1712.132

1495.3,-1713.62

1496.7,-1734.858

1496.8,-1736.4060000000002

1496.2,-1727.1819999999998

1496.3,-1728.709

1497.7,-1750.54

1497.8,-1752.1330000000003

1497.2,-1742.6419999999998

1497.3,-1744.212

1498.7,-1766.7

1498.8,-1768.345

1498.2,-1758.557

1498.3,-1760.175

1480.6,-1519.434

1499.7,-1783.393

1499.8,-1785.094

1499.2,-1774.976

1499.3,-1776.649

1500.7,-1800.6770000000001

1500.8,-1802.4399999999998

1500.2,-1791.9569999999999

1500.3,-1793.688

1501.7,-1818.6190000000001

1501.8,-1820.452

1501.2,-1809.561

1501.3,-1811.359

1502.7,-1837.2959999999998

1502.8,-1839.206

1502.2,-1827.86

1502.3,-1829.7310000000002

1503.7,-1856.792

1503.8,-1858.7910000000002

1503.2,-1846.935

1503.3,-1848.8890000000001

1504.7,-1877.2089999999998

1504.8,-1879.306

1504.2,-1866.879

1504.3,-1868.9250000000002

1505.7,-1898.662

1505.8,-1900.8690000000001

1505.2,-1887.798

1505.3,-1889.949

1506.2,-1909.817

1506.7,-1921.284

1506.3,-1912.0860000000002

1506.8,-1923.617

1507.8,-1947.7090000000003

1507.7,-1945.2329999999997

1507.2,-1933.0819999999999

1507.3,-1935.4829999999997

1508.8,-1973.333

1508.7,-1970.696

1508.2,-1957.7630000000001

1508.3,-1960.3159999999998

1509.8,-2000.717

1509.7,-1997.8919999999998

1509.2,-1984.0620000000001

1509.3,-1986.7900000000002

1510.8,-2030.1299999999997

1510.7,-2027.089

1510.2,-2012.222

1510.3,-2015.15

1511.7,-2058.607

1511.8,-2061.901

1511.2,-2042.534

1511.3,-2045.6970000000001

1512.7,-2092.843

1512.8,-2096.434

1512.2,-2075.357

1512.3,-2078.793

1513.7,-2130.287

1513.8,-2134.23

1513.2,-2111.129

1513.3,-2114.888

1514.3,-2154.543

1514.8,-2175.919

1514.7,-2171.554

1514.2,-2150.3979999999997

1515.8,-2222.305

1515.7,-2217.4269999999997

1515.2,-2193.858

1515.3,-2198.4660000000003

1516.8,-2274.428

1516.7,-2268.922

1516.2,-2242.398

1516.3,-2247.572

1517.2,-2297.179

1517.7,-2327.3729999999996

1517.3,-2303.055

1517.8,-2333.666

1518.7,-2394.58

1518.2,-2359.7470000000003

1518.3,-2366.5060000000003

1519.8,-2481.608

1519.7,-2473.022

1519.2,-2432.206

1519.3,-2440.101

1520.8,-2576.523

1520.7,-2566.213

1520.2,-2517.499

1520.3,-2526.8830000000003

1521.8,-2691.99

1521.7,-2679.313

1521.2,-2619.862

1521.3,-2631.2569999999996

1522.8,-2836.265

1522.7,-2820.215

1522.2,-2745.6420000000003

1522.3,-2759.848

1523.8,-3022.7200000000003

1523.7,-3001.626

1523.2,-2904.781

1523.3,-2923.0829999999996

1524.7,-3245.415

1524.2,-3113.792

1524.3,-3138.4040000000005

1524.8,-3274.545

1525.7,-3592.669

1525.2,-3402.269

1525.3,-3437.34

1525.8,-3635.768

1526.7,-4130.772

1526.2,-3829.031

1526.3,-3883.3550000000005

1526.8,-4201.466

1527.7,-5084.187999999999

1527.2,-4530.037

1527.3,-4625.956

1527.8,-5221.949

1528.7,-7256.7

1528.2,-5906.552000000001

1528.3,-6121.366000000001

1529.7,-17299.700999999997

1529.2,-9888.715

1529.3,-10747.085000000001

1530.7,17234.941

1530.2,-173382.70799999998

1530.3,168628.458

1531.7,4129.034

1531.2,7236.137

1531.3,6378.376

1532.7,1713.4919999999997

1532.2,2612.8

1532.3,2398.029

1533.7,692.7540000000001

1533.2,1117.4270000000001

1533.3,1021.478

1534.8,83.30399999999997

1534.7,126.47399999999993

1534.2,374.3829999999999

1534.3,320.0

1535.8,-264.78

1535.7,-235.5580000000001

1535.2,-72.33199999999994

1535.3,-107.48500000000007

1536.8,-509.594

1536.7,-488.389

1536.2,-372.179

1536.3,-396.89200000000005

1537.8,-692.2170000000001

1537.7,-676.039

1537.2,-588.5999999999999

1537.3,-607.0229999999999

1538.7,-821.689

1538.8,-834.514

1488.6,-1620.519

1538.2,-753.1210000000001

1538.3,-767.4649999999999

1539.7,-938.715

1539.8,-949.191

1539.2,-883.1779999999999

1539.3,-894.73

1540.2,-989.202

1540.7,-1035.369

1541.8,-1124.518

1541.7,-1117.0259999999998

1541.2,-1077.813

1541.3,-1085.9

1542.3,-1160.3890000000001

1542.8,-1193.846

1542.7,-1187.333

1542.2,-1153.4180000000001

1543.8,-1254.601

1543.7,-1248.855

1489.6,-1633.726

1543.2,-1219.063

1543.3,-1225.17

1544.8,-1308.5839999999998

1544.7,-1303.449

1544.2,-1276.9230000000002

1544.3,-1282.346

1545.3,-1333.467

1545.8,-1357.133

1545.2,-1328.593

1545.7,-1352.491

1546.8,-1401.2620000000002

1546.7,-1397.0240000000001

1546.2,-1375.266

1546.3,-1379.696

1547.8,-1441.758

1547.7,-1437.853

1547.2,-1417.859

1547.3,-1421.922

1548.8,-1479.2379999999998

1548.7,-1475.6109999999999

1490.6,-1647.132

1548.2,-1457.0819999999999

1548.3,-1460.842

1549.8,-1514.1950000000002

1549.7,-1510.801

1549.2,-1493.5

1549.3,-1497.005

1550.3,-1530.853

1550.8,-1547.025

1550.2,-1527.562

1550.7,-1543.828

1551.8,-1578.0529999999999

1551.7,-1575.024

1551.2,-1559.636

1551.3,-1562.746

1552.7,-1604.663

1552.2,-1590.022

1552.3,-1592.9789999999998

1552.8,-1607.5500000000002

1553.7,-1632.9719999999998

1553.2,-1618.971

1491.6,-1660.762

1553.3,-1621.7949999999998

1553.8,-1635.7379999999998

1554.7,-1660.144

1554.2,-1646.69

1554.3,-1649.4010000000003

1554.8,-1662.806

1555.2,-1673.356

1555.7,-1686.342

1555.3,-1675.971

1555.8,-1688.914

1556.7,-1711.707

1556.2,-1699.121

1556.3,-1701.653

1556.8,-1714.201

1557.7,-1736.355

1557.2,-1724.114

1557.3,-1726.574

1557.8,-1738.785

1558.7,-1760.395

1558.2,-1748.4450000000002

1558.3,-1750.846

1558.8,-1762.7689999999998

1559.7,-1783.9160000000002

1559.2,-1772.215

1559.3,-1774.564

1559.8,-1786.243

1560.2,-1795.508

1560.7,-1807.0009999999997

1560.3,-1797.815

1560.8,-1809.288

1561.7,-1829.7200000000003

1561.2,-1818.402

1561.3,-1820.672

1561.8,-1831.974

1562.7,-1852.1399999999999

1562.2,-1840.9640000000002

1562.3,-1843.2040000000002

1562.8,-1854.368

1563.7,-1874.3159999999998

1563.2,-1863.255

1563.3,-1865.471

1563.8,-1876.523

1564.7,-1896.3039999999996

1564.2,-1885.3310000000001

1564.3,-1887.5279999999998

1564.8,-1898.4940000000001

1565.2,-1907.2419999999997

1565.7,-1918.1499999999999

1565.3,-1909.426

1565.8,-1920.3280000000002

1566.2,-1929.033

1566.7,-1939.8980000000001

1566.3,-1931.208
1566.8,-1942.0700000000002
1567.8,-1963.759
1567.2,-1950.75
1567.7,-1961.591
1567.3,-1952.919
1568.7,-1983.2669999999998
1568.2,-1972.4289999999999
1568.3,-1974.596

1569.7,-2004.96

1569.2,-1994.1079999999997

1569.3,-1996.2779999999998

1570.2,-2015.8249999999998

1570.7,-2026.706

1571.7,-2048.539

1571.2,-2037.61

1571.3,-2039.7930000000001

1572.7,-2070.486

1572.2,-2059.496

1572.3,-2061.691

1573.7,-2092.582

1573.2,-2081.514

1573.3,-2083.724

1574.7,-2114.853

1574.2,-2103.694

1574.3,-2105.9210000000003

1575.7,-2137.33

1575.2,-2126.064

1576.7,-2160.039

1576.2,-2148.6530000000002

1576.3,-2150.925

1577.7,-2183.0099999999998

1577.2,-2171.489

1577.3,-2173.788

1578.7,-2206.27

1578.2,-2194.602

1578.3,-2196.9300000000003

1579.7,-2229.848

1579.2,-2218.018

1579.3,-2220.377

1580.2,-2241.765

1580.7,-2253.773

1581.7,-2278.071

1581.2,-2265.873

1581.3,-2268.3050000000003

1582.7,-2302.773

1582.2,-2290.371

1582.3,-2292.843

1583.7,-2327.91

1583.2,-2315.286

1583.3,-2317.802

1584.7,-2353.511

1584.2,-2340.651

1584.3,-2343.2129999999997

1585.2,-2366.495

1585.7,-2379.607

1586.7,-2406.232

1586.2,-2392.851

1586.3,-2395.517

1587.7,-2433.419

1587.2,-2419.7529999999997

1587.3,-2422.475

1588.7,-2461.2039999999997

1588.2,-2447.2349999999997

1588.3,-2450.016

1589.7,-2489.624

1589.2,-2475.332

1589.3,-2478.178

1590.2,-2504.083

1590.7,-2518.716

1591.2,-2533.526

1591.7,-2548.521

1591.8,-2551.542
1592.2,-2563.7039999999997
1592.3,-2566.764
1592.7,-2579.083
1592.8,-2582.182
1593.2,-2594.66
1593.3,-2597.8
1593.7,-2610.444
1593.8,-2613.626
1594.2,-2626.44
1594.3,-2629.665
1594.7,-2642.654
1594.8,-2645.9230000000002
1595.2,-2659.092
1595.3,-2662.408
1595.7,-2675.7619999999997
1595.8,-2679.124
1596.2,-2692.67
1596.3,-2696.08
1596.7,-2709.822
1596.8,-2713.282
1597.2,-2727.227
1597.3,-2730.7380000000003
1597.7,-2744.8900000000003
1597.8,-2748.455
1598.2,-2762.821
1598.3,-2766.4410000000003
1598.7,-2781.0280000000002
1598.8,-2784.702
1599.2,-2799.517
1599.3,-2803.25
1599.7,-2818.298
1599.8,-2822.09
1505.6,-1896.466
1544.1,-1271.439
1556.6,-1709.204
1557.6,-1733.9189999999999
1558.6,-1758.0149999999999
1569.1,-1991.9399999999996
1571.1,-2035.4279999999999
1574.1,-2101.468
1579.1,-2215.6620000000003
1581.1,-2263.445
1584.1,-2338.093
1589.1,-2472.494
1188.0,863.069
1544.5,-1293.013
1235.5,41.75
1237.5,-290.7089999999999
1238.5,-402.25900000000007
1239.5,-492.5559999999999
1240.5,-567.6590000000001
1242.5,-686.9929999999999
1243.5,-735.9150000000001
1244.5,-779.7600000000001
1245.5,-819.614
1246.5,-856.3230000000001
1249.5,-953.831
1250.5,-983.7719999999999
1251.5,-1013.146
1252.5,-1042.368
1253.5,-1071.888
1254.5,-1102.223
1255.5,-1134.0140000000001
1257.5,-1205.748
1554.5,-1654.7930000000001
1258.5,-1248.7630000000001
1259.5,-1300.2269999999999
1260.5,-1365.6909999999998
1261.5,-1456.494
1262.5,-1600.2269999999999
1263.5,-1886.6639999999998
1264.5,-2871.8790000000004
1265.5,4531.124
1267.5,-625.8149999999999
1268.5,-828.162
1269.5,-944.8140000000001
1270.5,-1025.4389999999999
1573.5,-2088.149
1271.5,-1087.911
1272.5,-1140.3110000000001
1273.5,-1186.887
1274.5,-1230.152
1275.5,-1271.7450000000001
1276.5,-1312.847
1277.5,-1354.391
1278.5,-1397.1940000000002
1279.5,-1442.029
1281.5,-1541.0729999999999
1282.5,-1597.179
1283.5,-1659.243
1284.5,-1728.8000000000002
1285.5,-1807.824
1290.5,-2482.645
1292.5,-3070.688
1295.5,-5562.764
1296.5,-8334.933
1300.5,4724.941