wavelength,polarizability
1100.0,-583.832
1100.1,-588.193
1100.2,-592.5790000000001
1100.3,-596.992
1100.4,-601.434
1100.5,-605.906
1100.6,-610.41
1100.7,-614.948
1100.8,-619.523
1100.9,-624.135
1101.0,-628.786
1101.1,-633.48
1101.2,-638.217
1101.3,-642.999
1101.4,-647.83
1101.5,-652.71
1101.6,-657.6419999999999
1101.7,-662.6289999999999
1101.8,-667.671
1101.9,-672.773
1102.0,-677.936
1102.1,-683.1619999999999
1102.2,-688.455
1102.3,-693.817
1102.4,-699.25
1102.5,-704.758
1102.6,-710.342
1102.7,-716.007
1102.8,-721.7560000000001
1102.9,-727.591
1103.0,-733.5160000000001
1103.1,-739.534
1103.2,-745.65
1103.3,-751.8660000000001
1103.4,-758.187
1103.5,-764.617
1103.6,-771.16
1103.7,-777.821
1103.8,-784.6030000000001
1103.9,-791.513
1104.0,-798.555
1104.1,-805.735
1104.2,-813.057
1104.3,-820.529
1104.4,-828.155
1104.5,-835.943
1104.6,-843.8989999999999
1104.7,-852.0310000000001
1104.8,-860.346
1104.9,-868.8510000000001
1105.0,-877.556
1105.1,-886.4680000000001
1105.2,-895.5980000000001
1105.3,-904.955
1105.4,-914.55
1105.5,-924.393
1105.6,-934.4960000000001
1105.7,-944.872
1105.8,-955.534
1105.9,-966.495
1106.0,-977.7719999999999
1106.1,-989.3789999999999
1106.2,-1001.3330000000001
1106.3,-1013.653
1106.4,-1026.358
1106.5,-1039.469
1106.6,-1053.007
1106.7,-1066.998
1106.8,-1081.465
1106.9,-1096.437
1107.0,-1111.943
1107.1,-1128.016
1107.2,-1144.6889999999999
1107.3,-1162.001
1107.4,-1179.991
1107.5,-1198.704
1107.6,-1218.187
1107.7,-1238.493
1107.8,-1259.6789999999999
1107.9,-1281.806
1108.0,-1304.943
1108.1,-1329.165
1108.2,-1354.5539999999999
1108.3,-1381.2020000000002
1108.4,-1409.2089999999998
1108.5,-1438.6870000000001
1108.6,-1469.761
1108.7,-1502.568
1108.8,-1537.265
1108.9,-1574.026
1109.0,-1613.046
1109.1,-1654.549
1109.2,-1698.786
1109.3,-1746.045
1109.4,-1796.655
1109.5,-1850.996
1109.6,-1909.504
1109.7,-1972.69
1109.8,-2041.15
1109.9,-2115.585
1110.0,-2196.828
1110.1,-2285.8720000000003
1110.2,-2383.915
1110.3,-2492.4120000000003
1110.4,-2613.15
1110.5,-2748.348
1110.6,-2900.797
1110.7,-3074.053
1110.8,-3272.722
1110.9,-3502.8790000000004
1111.0,-3772.704
1111.1,-4093.474
1111.2,-4481.194
1111.3,-4959.353
1111.4,-5563.884
1111.5,-6352.664000000001
1111.6,-7425.276
1111.7,-8968.84
1111.8,-11381.284
1111.9,-15684.601999999999
1112.0,-25537.277000000002
1112.1,-71178.842
1112.2,86269.89300000001
1112.3,26465.592
1112.4,15491.014
1112.5,10878.883999999998
1112.6,8339.391
1112.7,6731.52
1112.8,5621.922
1112.9,4809.935
1113.0,4189.892
1113.1,3700.8540000000003
1113.2,3305.2090000000003
1113.3,2978.487
1113.4,2704.079
1113.5,2470.315
1113.6,2268.756
1113.7,2093.149
1113.8,1938.76
1113.9,1801.941
1114.0,1679.835
1114.1,1570.172
1114.2,1471.1270000000002
1114.3,1381.214
1114.4,1299.212
1114.5,1224.11
1114.6,1155.06
1114.7,1091.348
1114.8,1032.37
1114.9,977.6060000000001
1115.0,926.6139999999999
1115.1,879.007
1115.2,834.453
1115.3,792.66
1115.4,753.373
1115.5,716.3660000000001
1115.6,681.44
1115.7,648.42
1115.8,617.148
1115.9,587.4830000000001
1116.0,559.3009999999999
1116.1,532.489
1116.2,506.94300000000004
1116.3,482.57300000000004
1116.4,459.295
1116.5,437.034
1116.6,415.72
1116.7,395.29
1116.8,375.689
1116.9,356.86199999999997
1117.0,338.76099999999997
1117.1,321.343
1117.2,304.566
1117.3,288.393
1117.4,272.788
1117.5,257.721
1117.6,243.16
1117.7,229.079
1117.8,215.451
1117.9,202.252
1118.0,189.46099999999998
1118.1,177.055
1118.2,165.017
1118.3,153.328
1118.4,141.97
1118.5,130.92700000000002
1118.6,120.186
1118.7,109.73100000000001
1118.8,99.54899999999999
1118.9,89.62799999999999
1119.0,79.956
1119.1,70.523
1119.2,61.317
1119.3,52.328
1119.4,43.549
1119.5,34.968
1119.6,26.579
1119.7,18.373
1119.8,10.343
1119.9,2.4819999999999998
1120.0,-5.218
1120.1,-12.762
1120.2,-20.157
1120.3,-27.409000000000002
1120.4,-34.523
1120.5,-41.505
1120.6,-48.358999999999995
1120.7,-55.091
1120.8,-61.705
1120.9,-68.206
1121.0,-74.597
1121.1,-80.883
1121.2,-87.068
1121.3,-93.156
1121.4,-99.149
1121.5,-105.053
1121.6,-110.869
1121.7,-116.601
1121.8,-122.25200000000001
1121.9,-127.82600000000001
1122.0,-133.32399999999998
1122.1,-138.75
1122.2,-144.107
1122.3,-149.39600000000002
1122.4,-154.621
1122.5,-159.783
1122.6,-164.886
1122.7,-169.93099999999998
1122.8,-174.92
1122.9,-179.857
1123.0,-184.74200000000002
1123.1,-189.578
1123.2,-194.36599999999999
1123.3,-199.109
1123.4,-203.80900000000003
1123.5,-208.467
1123.6,-213.085
1123.7,-217.665
1123.8,-222.208
1123.9,-226.717
1124.0,-231.192
1124.1,-235.636
1124.2,-240.05
1124.3,-244.435
1124.4,-248.794
1124.5,-253.127
1124.6,-257.436
1124.7,-261.723
1124.8,-265.99
1124.9,-270.237
1125.0,-274.466
1125.1,-278.67900000000003
1125.2,-282.877
1125.3,-287.061
1125.4,-291.23400000000004
1125.5,-295.39599999999996
1125.6,-299.54900000000004
1125.7,-303.695
1125.8,-307.835
1125.9,-311.971
1126.0,-316.10400000000004
1126.1,-320.235
1126.2,-324.368
1126.3,-328.50199999999995
1126.4,-332.64
1126.5,-336.784
1126.6,-340.935
1126.7,-345.096
1126.8,-349.26800000000003
1126.9,-353.45300000000003
1127.0,-357.653
1127.1,-361.87
1127.2,-366.10699999999997
1127.3,-370.366
1127.4,-374.648
1127.5,-378.958
1127.6,-383.29699999999997
1127.7,-387.668
1127.8,-392.074
1127.9,-396.517
1128.0,-401.00300000000004
1128.1,-405.532
1128.2,-410.111
1128.3,-414.741
1128.4,-419.42699999999996
1128.5,-424.175
1128.6,-428.98699999999997
1128.7,-433.87
1128.8,-438.829
1128.9,-443.87
1129.0,-448.99800000000005
1129.1,-454.221
1129.2,-459.546
1129.3,-464.981
1129.4,-470.535
1129.5,-476.216
1129.6,-482.037
1129.7,-488.00699999999995
1129.8,-494.14
1129.9,-500.449
1130.0,-506.949
1130.1,-513.658
1130.2,-520.594
1130.3,-527.779
1130.4,-535.235
1130.5,-542.99
1130.6,-551.073
1130.7,-559.518
1130.8,-568.363
1130.9,-577.654
1131.0,-587.44
1131.1,-597.78
1131.2,-608.742
1131.3,-620.406
1131.4,-632.864
1131.5,-646.227
1131.6,-660.628
1131.7,-676.2239999999999
1131.8,-693.21
1131.9,-711.819
1132.0,-732.347
1132.1,-755.16
1132.2,-780.727
1132.3,-809.653
1132.4,-842.7339999999999
1132.5,-881.041
1132.6,-926.046
1132.7,-979.832
1132.8,-1045.443
1132.9,-1127.521
1133.0,-1233.497
1133.1,-1376.069
1133.2,-1578.871
1133.3,-1891.474
1133.4,-2438.4139999999998
1133.5,-3647.085
1133.6,-8596.021
1133.7,14308.604
1133.8,3405.522
1133.9,1758.9920000000002
1134.0,1092.297
1134.1,730.4830000000001
1134.2,502.74800000000005
1134.3,345.793
1134.4,230.745
1134.5,142.55100000000002
1134.6,72.597
1134.7,15.595
1134.8,-31.881999999999998
1134.9,-72.148
1135.0,-106.82799999999999
1135.1,-137.092
1135.2,-163.80700000000002
1135.3,-187.625
1135.4,-209.051
1135.5,-228.479
1135.6,-246.222
1135.7,-262.53
1135.8,-277.608
1135.9,-291.625
1136.0,-304.719
1136.1,-317.006
1136.2,-328.586
1136.3,-339.541
1136.4,-349.94300000000004
1136.5,-359.853
1136.6,-369.325
1136.7,-378.403
1136.8,-387.13
1136.9,-395.539
1137.0,-403.664
1137.1,-411.531
1137.2,-419.165
1137.3,-426.588
1137.4,-433.82099999999997
1137.5,-440.88
1137.6,-447.783
1137.7,-454.54400000000004
1137.8,-461.176
1137.9,-467.69199999999995
1138.0,-474.102
1138.1,-480.417
1138.2,-486.647
1138.3,-492.8
1138.4,-498.884
1138.5,-504.908
1138.6,-510.87699999999995
1138.7,-516.8
1138.8,-522.681
1138.9,-528.5269999999999
1139.0,-534.344
1139.1,-540.137
1139.2,-545.91
1139.3,-551.67
1139.4,-557.42
1139.5,-563.165
1139.6,-568.909
1139.7,-574.656
1139.8,-580.411
1139.9,-586.178
1140.0,-591.96
1140.1,-597.761
1140.2,-603.585
1140.3,-609.436
1140.4,-615.317
1140.5,-621.2330000000001
1140.6,-627.186
1140.7,-633.181
1140.8,-639.22
1140.9,-645.309
1141.0,-651.45
1141.1,-657.648
1141.2,-663.905
1141.3,-670.227
1141.4,-676.617
1141.5,-683.079
1141.6,-689.617
1141.7,-696.2360000000001
1141.8,-702.939
1141.9,-709.732
1142.0,-716.6189999999999
1142.1,-723.6039999999999
1142.2,-730.693
1142.3,-737.8910000000001
1142.4,-745.203
1142.5,-752.635
1142.6,-760.192
1142.7,-767.88
1142.8,-775.706
1142.9,-783.675
1143.0,-791.796
1143.1,-800.075
1143.2,-808.5189999999999
1143.3,-817.1360000000001
1143.4,-825.935
1143.5,-834.925
1143.6,-844.113
1143.7,-853.5110000000001
1143.8,-863.128
1143.9,-872.9739999999999
1144.0,-883.062
1144.1,-893.404
1144.2,-904.0110000000001
1144.3,-914.8989999999999
1144.4,-926.08
1144.5,-937.571
1144.6,-949.388
1144.7,-961.548
1144.8,-974.069
1144.9,-986.9730000000001
1145.0,-1000.28
1145.1,-1014.013
1145.2,-1028.197
1145.3,-1042.857
1145.4,-1058.024
1145.5,-1073.726
1145.6,-1089.998
1145.7,-1106.875
1145.8,-1124.396
1145.9,-1142.604
1146.0,-1161.5439999999999
1146.1,-1181.266
1146.2,-1201.825
1146.3,-1223.281
1146.4,-1245.6989999999998
1146.5,-1269.15
1146.6,-1293.715
1146.7,-1319.481
1146.8,-1346.5439999999999
1146.9,-1375.0120000000002
1147.0,-1405.004
1147.1,-1436.654
1147.2,-1470.111
1147.3,-1505.5420000000001
1147.4,-1543.1370000000002
1147.5,-1583.109
1147.6,-1625.7020000000002
1147.7,-1671.192
1147.8,-1719.896
1147.9,-1772.181
1148.0,-1828.469
1148.1,-1889.2520000000002
1148.2,-1955.106
1148.3,-2026.711
1148.4,-2104.8720000000003
1148.5,-2190.552
1148.6,-2284.9139999999998
1148.7,-2389.371
1148.8,-2505.661
1148.9,-2635.947
1149.0,-2782.95
1149.1,-2950.1490000000003
1149.2,-3142.0570000000002
1149.3,-3364.64
1149.4,-3625.954
1149.5,-3937.1440000000002
1149.6,-4314.085999999999
1149.7,-4780.195
1149.8,-5371.496999999999
1149.9,-6146.4490000000005
1150.0,-7206.61
1150.1,-8745.337
1150.2,-11181.813
1150.3,-15626.635
1150.4,-26307.792
1150.5,-87242.53300000001
1150.6,63779.095
1150.7,23020.93
1150.8,13919.04
1150.9,9908.436
1151.0,7650.543000000001
1151.1,6202.191
1151.2,5194.005
1151.3,4451.662
1151.4,3882.155
1151.5,3431.33
1151.6,3065.52
1151.7,2762.6890000000003
1151.8,2507.813
1151.9,2290.294
1152.0,2102.4410000000003
1152.1,1938.5420000000001
1152.2,1794.259
1152.3,1666.245
1152.4,1551.872
1152.5,1449.0479999999998
1152.6,1356.09
1152.7,1271.626
1152.8,1194.526
1152.9,1123.853
1153.0,1058.822
1153.1,998.7719999999999
1153.2,943.1389999999999
1153.3,891.444
1153.4,843.2710000000001
1153.5,798.265
1153.6,756.113
1153.7,716.544
1153.8,679.32
1153.9,644.232
1154.0,611.0930000000001
1154.1,579.74
1154.2,550.025
1154.3,521.817
1154.4,494.999
1154.5,469.465
1154.6,445.12
1154.7,421.87699999999995
1154.8,399.66
1154.9,378.397
1155.0,358.023
1155.1,338.47900000000004
1155.2,319.71299999999997
1155.3,301.67400000000004
1155.4,284.318
1155.5,267.60200000000003
1155.6,251.488
1155.7,235.942
1155.8,220.93
1155.9,206.422
1156.0,192.39
1156.1,178.80900000000003
1156.2,165.653
1156.3,152.901
1156.4,140.531
1156.5,128.524
1156.6,116.86200000000001
1156.7,105.527
1156.8,94.50299999999999
1156.9,83.775
1157.0,73.33
1157.1,63.153999999999996
1157.2,53.233999999999995
1157.3,43.559
1157.4,34.117
1157.5,24.899
1157.6,15.894
1157.7,7.093
1157.8,-1.5119999999999998
1157.9,-9.931000000000001
1158.0,-18.171
1158.1,-26.239
1158.2,-34.143
1158.3,-41.89
1158.4,-49.485
1158.5,-56.935
1158.6,-64.24600000000001
1158.7,-71.423
1158.8,-78.472
1158.9,-85.398
1159.0,-92.205
1159.1,-98.898
1159.2,-105.48100000000001
1159.3,-111.959
1159.4,-118.336
1159.5,-124.616
1159.6,-130.80200000000002
1159.7,-136.898
1159.8,-142.907
1159.9,-148.832
1160.0,-154.678
1160.1,-160.446
1160.2,-166.14
1160.3,-171.763
1160.4,-177.317
1160.5,-182.805
1160.6,-188.229
1160.7,-193.593
1160.8,-198.89700000000002
1160.9,-204.146
1161.0,-209.34
1161.1,-214.483
1161.2,-219.576
1161.3,-224.62099999999998
1161.4,-229.62
1161.5,-234.576
1161.6,-239.489
1161.7,-244.363
1161.8,-249.199
1161.9,-253.998
1162.0,-258.762
1162.1,-263.494
1162.2,-268.194
1162.3,-272.865
1162.4,-277.508
1162.5,-282.124
1162.6,-286.715
1162.7,-291.284
1162.8,-295.83
1162.9,-300.357
1163.0,-304.86400000000003
1163.1,-309.355
1163.2,-313.83
1163.3,-318.291
1163.4,-322.73900000000003
1163.5,-327.176
1163.6,-331.60400000000004
1163.7,-336.023
1163.8,-340.436
1163.9,-344.844
1164.0,-349.24800000000005
1164.1,-353.65
1164.2,-358.05199999999996
1164.3,-362.455
1164.4,-366.86199999999997
1164.5,-371.272
1164.6,-375.689
1164.7,-380.11400000000003
1164.8,-384.54900000000004
1164.9,-388.995
1165.0,-393.455
1165.1,-397.93
1165.2,-402.423
1165.3,-406.936
1165.4,-411.47
1165.5,-416.028
1165.6,-420.61199999999997
1165.7,-425.225
1165.8,-429.87
1165.9,-434.548
1166.0,-439.26300000000003
1166.1,-444.01800000000003
1166.2,-448.815
1166.3,-453.659
1166.4,-458.55199999999996
1166.5,-463.499
1166.6,-468.50199999999995
1166.7,-473.56699999999995
1166.8,-478.69699999999995
1166.9,-483.898
1167.0,-489.17400000000004
1167.1,-494.531
1167.2,-499.975
1167.3,-505.51199999999994
1167.4,-511.148
1167.5,-516.891
1167.6,-522.749
1167.7,-528.731
1167.8,-534.845
1167.9,-541.1030000000001
1168.0,-547.515
1168.1,-554.094
1168.2,-560.8530000000001
1168.3,-567.808
1168.4,-574.974
1168.5,-582.37
1168.6,-590.0169999999999
1168.7,-597.937
1168.8,-606.1569999999999
1168.9,-614.705
1169.0,-623.614
1169.1,-632.9209999999999
1169.2,-642.668
1169.3,-652.904
1169.4,-663.685
1169.5,-675.075
1169.6,-687.15
1169.7,-699.997
1169.8,-713.721
1169.9,-728.444
1170.0,-744.316
1170.1,-761.5139999999999
1170.2,-780.257
1170.3,-800.812
1170.4,-823.515
1170.5,-848.788
1170.6,-877.173
1170.7,-909.3760000000001
1170.8,-946.336
1170.9,-989.326
1171.0,-1040.122
1171.1,-1101.271
1171.2,-1176.568
1171.3,-1271.923
1171.4,-1397.0770000000002
1171.5,-1569.3010000000002
1171.6,-1822.418
1171.7,-2232.889
1171.8,-3017.902
1171.9,-5135.134
1172.0,-31656.561
1172.1,5969.501
1172.2,2397.675
1172.3,1350.398
1172.4,848.5319999999999
1172.5,553.068
1172.6,357.724
1172.7,218.489
1172.8,113.846
1172.9,32.027
1173.0,-33.946999999999996
1173.1,-88.475
1173.2,-134.469
1173.3,-173.93400000000003
1173.4,-208.295
1173.5,-238.593
1173.6,-265.606
1173.7,-289.927
1173.8,-312.01599999999996
1173.9,-332.23699999999997
1174.0,-350.879
1174.1,-368.17800000000005
1174.2,-384.324
1174.3,-399.477
1174.4,-413.769
1174.5,-427.311
1174.6,-440.19599999999997
1174.7,-452.506
1174.8,-464.309
1174.9,-475.666
1175.0,-486.62800000000004
1175.1,-497.24
1175.2,-507.54400000000004
1175.3,-517.575
1175.4,-527.363
1175.5,-536.938
1175.6,-546.3240000000001
1175.7,-555.545
1175.8,-564.622
1175.9,-573.573
1176.0,-582.4159999999999
1176.1,-591.1669999999999
1176.2,-599.84
1176.3,-608.45
1176.4,-617.009
1176.5,-625.53
1176.6,-634.023
1176.7,-642.5
1176.8,-650.972
1176.9,-659.446
1177.0,-667.934
1177.1,-676.445
1177.2,-684.987
1177.3,-693.569
1177.4,-702.2
1177.5,-710.887
1177.6,-719.6410000000001
1177.7,-728.467
1177.8,-737.377
1177.9,-746.3760000000001
1178.0,-755.4739999999999
1178.1,-764.68
1178.2,-774.0010000000001
1178.3,-783.448
1178.4,-793.028
1178.5,-802.7510000000001
1178.6,-812.6260000000001
1178.7,-822.663
1178.8,-832.873
1178.9,-843.265
1179.0,-853.8510000000001
1179.1,-864.6419999999999
1179.2,-875.6489999999999
1179.3,-886.8860000000001
1179.4,-898.365
1179.5,-910.1
1179.6,-922.105
1179.7,-934.395
1179.8,-946.9860000000001
1179.9,-959.8960000000001
1180.0,-973.1410000000001
1180.1,-986.742
1180.2,-1000.7189999999999
1180.3,-1015.092
1180.4,-1029.885
1180.5,-1045.123
1180.6,-1060.8319999999999
1180.7,-1077.039
1180.8,-1093.776
1180.9,-1111.075
1181.0,-1128.971
1181.1,-1147.501
1181.2,-1166.7069999999999
1181.3,-1186.633
1181.4,-1207.327
1181.5,-1228.8419999999999
1181.6,-1251.233
1181.7,-1274.563
1181.8,-1298.9
1181.9,-1324.319
1182.0,-1350.9
1182.1,-1378.734
1182.2,-1407.921
1182.3,-1438.569
1182.4,-1470.8010000000002
1182.5,-1504.753
1182.6,-1540.575
1182.7,-1578.4370000000001
1182.8,-1618.53
1182.9,-1661.067
1183.0,-1706.2920000000001
1183.1,-1754.481
1183.2,-1805.9479999999999
1183.3,-1861.0539999999999
1183.4,-1920.213
1183.5,-1983.908
1183.6,-2052.696
1183.7,-2127.235
1183.8,-2208.2960000000003
1183.9,-2296.797
1184.0,-2393.835
1184.1,-2500.734
1184.2,-2619.107
1184.3,-2750.9390000000003
1184.4,-2898.699
1184.5,-3065.498
1184.6,-3255.317
1184.7,-3473.3259999999996
1184.8,-3726.37
1184.9,-4023.703
1185.0,-4378.155
1185.1,-4808.036
1185.2,-5340.422
1185.3,-6017.102
1185.4,-6906.16
1185.5,-8126.496999999999
1185.6,-9906.136
1185.7,-12744.67
1185.8,-17988.982
1185.9,-30951.572999999997
1186.0,-116210.164
1186.1,64360.842000000004
1186.2,24915.03
1186.3,15335.011
1186.4,11015.872
1186.5,8557.239
1186.6,6969.736
1186.7,5859.866999999999
1186.8,5040.115
1186.9,4409.763
1187.0,3909.877
1187.1,3503.678
1187.2,3167.0229999999997
1187.3,2883.409
1187.4,2641.171
1187.5,2431.831
1187.6,2249.0789999999997
1187.7,2088.124
1187.8,1945.2579999999998
1187.9,1817.569
1188.0,1702.741
1188.1,1598.904
1188.2,1504.5339999999999
1188.3,1418.3770000000002
1188.4,1339.391
1188.5,1266.702
1188.6,1199.5739999999998
1188.7,1137.381
1188.8,1079.587
1188.9,1025.73
1189.0,975.413
1189.1,928.289
1189.2,884.055
1189.3,842.445
1189.4,803.2239999999999
1189.5,766.187
1189.6,731.1489999999999
1189.7,697.947
1189.8,666.433
1189.9,636.476
1190.0,607.9590000000001
1190.1,580.776
1190.2,554.8290000000001
1190.3,530.031
1190.4,506.305
1190.5,483.57599999999996
1190.6,461.78
1190.7,440.85699999999997
1190.8,420.751
1190.9,401.411
1191.0,382.791
1191.1,364.849
1191.2,347.545
1191.3,330.841
1191.4,314.705
1191.5,299.10400000000004
1191.6,284.01099999999997
1191.7,269.397
1191.8,255.238
1191.9,241.50900000000001
1192.0,228.19
1192.1,215.25900000000001
1192.2,202.69799999999998
1192.3,190.489
1192.4,178.614
1192.5,167.058
1192.6,155.806
1192.7,144.844
1192.8,134.159
1192.9,123.73899999999999
1193.0,113.571
1193.1,103.646
1193.2,93.95200000000001
1193.3,84.479
1193.4,75.219
1193.5,66.163
1193.6,57.302
1193.7,48.626999999999995
1193.8,40.133
1193.9,31.811
1194.0,23.654
1194.1,15.657
1194.2,7.813
1194.3,0.115
1194.4,-7.44
1194.5,-14.86
1194.6,-22.148000000000003
1194.7,-29.31
1194.8,-36.351
1194.9,-43.275
1195.0,-50.086000000000006
1195.1,-56.788999999999994
1195.2,-63.387
1195.3,-69.883
1195.4,-76.283
1195.5,-82.589
1195.6,-88.804
1195.7,-94.932
1195.8,-100.976
1195.9,-106.939
1196.0,-112.823
1196.1,-118.632
1196.2,-124.369
1196.3,-130.035
1196.4,-135.63299999999998
1196.5,-141.166
1196.6,-146.635
1196.7,-152.04399999999998
1196.8,-157.395
1196.9,-162.689
1197.0,-167.929
1197.1,-173.11599999999999
1197.2,-178.253
1197.3,-183.342
1197.4,-188.38400000000001
1197.5,-193.38099999999997
1197.6,-198.335
1197.7,-203.248
1197.8,-208.12
1197.9,-212.955
1198.0,-217.75400000000002
1198.1,-222.517
1198.2,-227.247
1198.3,-231.946
1198.4,-236.614
1198.5,-241.253
1198.6,-245.864
1198.7,-250.45
1198.8,-255.011
1198.9,-259.54900000000004
1199.0,-264.065
1199.1,-268.56
1199.2,-273.036
1199.3,-277.495
1199.4,-281.937
1199.5,-286.36400000000003
1199.6,-290.777
1199.7,-295.178
1199.8,-299.567
1199.9,-303.947
1200.0,-308.318
1200.1,-312.683
1200.2,-317.041
1200.3,-321.395
1200.4,-325.746
1200.5,-330.096
1200.6,-334.445
1200.7,-338.795
1200.8,-343.149
1200.9,-347.506
1201.0,-351.869
1201.1,-356.24
1201.2,-360.619
1201.3,-365.009
1201.4,-369.411
1201.5,-373.827
1201.6,-378.259
1201.7,-382.708
1201.8,-387.176
1201.9,-391.666
1202.0,-396.18
1202.1,-400.719
1202.2,-405.286
1202.3,-409.88199999999995
1202.4,-414.51199999999994
1202.5,-419.176
1202.6,-423.87800000000004
1202.7,-428.621
1202.8,-433.406
1202.9,-438.23800000000006
1203.0,-443.12
1203.1,-448.055
1203.2,-453.046
1203.3,-458.098
1203.4,-463.215
1203.5,-468.4
1203.6,-473.659
1203.7,-478.996
1203.8,-484.416
1203.9,-489.926
1204.0,-495.531
1204.1,-501.23800000000006
1204.2,-507.05300000000005
1204.3,-512.985
1204.4,-519.0409999999999
1204.5,-525.23
1204.6,-531.561
1204.7,-538.0459999999999
1204.8,-544.695
1204.9,-551.52
1205.0,-558.535
1205.1,-565.755
1205.2,-573.196
1205.3,-580.876
1205.4,-588.815
1205.5,-597.035
1205.6,-605.559
1205.7,-614.4159999999999
1205.8,-623.636
1205.9,-633.253
1206.0,-643.306
1206.1,-653.837
1206.2,-664.898
1206.3,-676.543
1206.4,-688.8389999999999
1206.5,-701.8589999999999
1206.6,-715.689
1206.7,-730.431
1206.8,-746.202
1206.9,-763.1410000000001
1207.0,-781.413
1207.1,-801.215
1207.2,-822.7860000000001
1207.3,-846.416
1207.4,-872.4630000000001
1207.5,-901.373
1207.6,-933.709
1207.7,-970.191
1207.8,-1011.758
1207.9,-1059.653
1208.0,-1115.562
1208.1,-1181.828
1208.2,-1261.809
1208.3,-1360.486
1208.4,-1485.59
1208.5,-1649.793
1208.6,-1875.414
1208.7,-2205.759
1208.8,-2737.35
1208.9,-3737.9629999999997
1209.0,-6329.109
1209.1,-29252.67
1209.2,9322.26
1209.3,3692.175
1209.4,2161.419
1209.5,1446.499
1209.6,1031.645
1209.7,760.17
1209.8,568.302
1209.9,425.20300000000003
1210.0,314.14
1210.1,225.247
1210.2,152.33
1210.3,91.307
1210.4,39.374
1210.5,-5.455
1210.6,-44.629
1210.7,-79.22800000000001
1210.8,-110.075
1210.9,-137.806
1211.0,-162.923
1211.1,-185.825
1211.2,-206.835
1211.3,-226.217
1211.4,-244.18900000000002
1211.5,-260.92900000000003
1211.6,-276.591
1211.7,-291.303
1211.8,-305.172
1211.9,-318.29400000000004
1212.0,-330.74699999999996
1212.1,-342.602
1212.2,-353.92
1212.3,-364.75300000000004
1212.4,-375.149
1212.5,-385.148
1212.6,-394.787
1212.7,-404.098
1212.8,-413.111
1212.9,-421.852
1213.0,-430.344
1213.1,-438.608
1213.2,-446.663
1213.3,-454.527
1213.4,-462.215
1213.5,-469.74199999999996
1213.6,-477.121
1213.7,-484.36400000000003
1213.8,-491.483
1213.9,-498.48699999999997
1214.0,-505.385
1214.1,-512.188
1214.2,-518.903
1214.3,-525.5369999999999
1214.4,-532.097
1214.5,-538.592
1214.6,-545.025
1214.7,-551.404
1214.8,-557.734
1214.9,-564.021
1215.0,-570.268
1215.1,-576.481
1215.2,-582.664
1215.3,-588.822
1215.4,-594.9580000000001
1215.5,-601.077
1215.6,-607.182
1215.7,-613.2769999999999
1215.8,-619.365
1215.9,-625.4490000000001
1216.0,-631.533
1216.1,-637.621
1216.2,-643.714
1216.3,-649.816
1216.4,-655.93
1216.5,-662.059
1216.6,-668.206
1216.7,-674.373
1216.8,-680.563
1216.9,-686.78
1217.0,-693.0239999999999
1217.1,-699.3
1217.2,-705.61
1217.3,-711.956
1217.4,-718.342
1217.5,-724.7689999999999
1217.6,-731.2410000000001
1217.7,-737.76
1217.8,-744.329
1217.9,-750.951
1218.0,-757.628
1218.1,-764.363
1218.2,-771.159
1218.3,-778.018
1218.4,-784.945
1218.5,-791.941
1218.6,-799.01
1218.7,-806.155
1218.8,-813.378
1218.9,-820.684
1219.0,-828.075
1219.1,-835.555
1219.2,-843.127
1219.3,-850.794
1219.4,-858.562
1219.5,-866.432
1219.6,-874.41
1219.7,-882.498
1219.8,-890.702
1219.9,-899.0260000000001
1220.0,-907.4730000000001
1220.1,-916.049
1220.2,-924.758
1220.3,-933.605
1220.4,-942.595
1220.5,-951.7339999999999
1220.6,-961.0269999999999
1220.7,-970.4789999999999
1220.8,-980.097
1220.9,-989.887
1221.0,-999.855
1221.1,-1010.008
1221.2,-1020.3530000000001
1221.3,-1030.897
1221.4,-1041.6480000000001
1221.5,-1052.614
1221.6,-1063.803
1221.7,-1075.224
1221.8,-1086.887
1221.9,-1098.8
1222.0,-1110.973
1222.1,-1123.4189999999999
1222.2,-1136.146
1222.3,-1149.1680000000001
1222.4,-1162.497
1222.5,-1176.145
1222.6,-1190.126
1222.7,-1204.455
1222.8,-1219.147
1222.9,-1234.2169999999999
1223.0,-1249.684
1223.1,-1265.5639999999999
1223.2,-1281.878
1223.3,-1298.645
1223.4,-1315.886
1223.5,-1333.625
1223.6,-1351.886
1223.7,-1370.694
1223.8,-1390.0770000000002
1223.9,-1410.065
1224.0,-1430.6889999999999
1224.1,-1451.981
1224.2,-1473.979
1224.3,-1496.721
1224.4,-1520.247
1224.5,-1544.602
1224.6,-1569.8329999999999
1224.7,-1595.993
1224.8,-1623.136
1224.9,-1651.3220000000001
1225.0,-1680.6170000000002
1225.1,-1711.089
1225.2,-1742.815
1225.3,-1775.879
1225.4,-1810.37
1225.5,-1846.3870000000002
1225.6,-1884.037
1225.7,-1923.44
1225.8,-1964.723
1225.9,-2008.0320000000002
1226.0,-2053.522
1226.1,-2101.368
1226.2,-2151.764
1226.3,-2204.925
1226.4,-2261.091
1226.5,-2320.53
1226.6,-2383.544
1226.7,-2450.471
1226.8,-2521.697
1226.9,-2597.656
1227.0,-2678.845
1227.1,-2765.833
1227.2,-2859.2729999999997
1227.3,-2959.921
1227.4,-3068.656
1227.5,-3186.506
1227.6,-3314.678
1227.7,-3454.607
1227.8,-3608.0029999999997
1227.9,-3776.925
1228.0,-3963.8740000000003
1228.1,-4171.92
1228.2,-4404.872
1228.3,-4667.512
1228.4,-4965.931
1228.5,-5308.0109999999995
1228.6,-5704.1269999999995
1228.7,-6168.229
1228.8,-6719.518
1228.9,-7385.177
1229.0,-8204.998
1229.1,-9239.657
1229.2,-10586.476
1229.3,-12412.014
1229.4,-15026.963
1229.5,-19085.077
1229.6,-26237.256
1229.7,-42204.39599999999
1229.8,-109467.647
1229.9,179633.687
1230.0,48983.047
1230.1,28237.877999999997
1230.2,19776.488
1230.3,15180.508
1230.4,12293.501
1230.5,10311.559000000001
1230.6,8866.644
1230.7,7766.446999999999
1230.8,6900.687
1230.9,6201.593000000001
1231.0,5625.217
1231.1,5141.817
1231.2,4730.542
1231.3,4376.343
1231.4,4068.0840000000003
1231.5,3797.3520000000003
1231.6,3557.667
1231.7,3343.962
1231.8,3152.2140000000004
1231.9,2979.191
1232.0,2822.265
1232.1,2679.2790000000005
1232.2,2548.4429999999998
1232.3,2428.262
1232.4,2317.478
1232.5,2215.02
1232.6,2119.9770000000003
1232.7,2031.565
1232.8,1949.1070000000002
1232.9,1872.015
1233.0,1799.776
1233.1,1731.94
1233.2,1668.111
1233.3,1607.941
1233.4,1551.1170000000002
1233.5,1497.366
1233.6,1446.4389999999999
1233.7,1398.1170000000002
1233.8,1352.2
1233.9,1308.51
1234.0,1266.886
1234.1,1227.181
1234.2,1189.263
1234.3,1153.011
1234.4,1118.3139999999999
1234.5,1085.072
1234.6,1053.193
1234.7,1022.592
1234.8,993.192
1234.9,964.92
1235.0,937.712
1235.1,911.5060000000001
1235.2,886.2460000000001
1235.3,861.88
1235.4,838.3589999999999
1235.5,815.637
1235.6,793.675
1235.7,772.431
1235.8,751.87
1235.9,731.9580000000001
1236.0,712.664
1236.1,693.957
1236.2,675.809
1236.3,658.195
1236.4,641.089
1236.5,624.47
1236.6,608.315
1236.7,592.6030000000001
1236.8,577.316
1236.9,562.436
1237.0,547.945
1237.1,533.826
1237.2,520.066
1237.3,506.649
1237.4,493.561
1237.5,480.79
1237.6,468.32300000000004
1237.7,456.148
1237.8,444.255
1237.9,432.63300000000004
1238.0,421.272
1238.1,410.161
1238.2,399.293
1238.3,388.659
1238.4,378.249
1238.5,368.05699999999996
1238.6,358.074
1238.7,348.295
1238.8,338.71
1238.9,329.315
1239.0,320.103
1239.1,311.068
1239.2,302.203
1239.3,293.505
1239.4,284.966
1239.5,276.58299999999997
1239.6,268.35
1239.7,260.263
1239.8,252.317
1239.9,244.50799999999998
1240.0,236.832
1240.1,229.285
1240.2,221.862
1240.3,214.56099999999998
1240.4,207.378
1240.5,200.30900000000003
1240.6,193.352
1240.7,186.502
1240.8,179.757
1240.9,173.114
1241.0,166.57
1241.1,160.123
1241.2,153.77
1241.3,147.507
1241.4,141.334
1241.5,135.247
1241.6,129.243
1241.7,123.322
1241.8,117.48100000000001
1241.9,111.71700000000001
1242.0,106.02799999999999
1242.1,100.413
1242.2,94.87100000000001
1242.3,89.398
1242.4,83.993
1242.5,78.654
1242.6,73.381
1242.7,68.17
1242.8,63.021
1242.9,57.931999999999995
1243.0,52.902
1243.1,47.928999999999995
1243.2,43.011
1243.3,38.149
1243.4,33.339
1243.5,28.581
1243.6,23.873
1243.7,19.215
1243.8,14.605
1243.9,10.042
1244.0,5.525
1244.1,1.052
1244.2,-3.3760000000000003
1244.3,-7.7620000000000005
1244.4,-12.106
1244.5,-16.409000000000002
1244.6,-20.673000000000002
1244.7,-24.898000000000003
1244.8,-29.084
1244.9,-33.234
1245.0,-37.348
1245.1,-41.426
1245.2,-45.47
1245.3,-49.48
1245.4,-53.457
1245.5,-57.402
1245.6,-61.315
1245.7,-65.19800000000001
1245.8,-69.051
1245.9,-72.875
1246.0,-76.671
1246.1,-80.438
1246.2,-84.179
1246.3,-87.89200000000001
1246.4,-91.58
1246.5,-95.243
1246.6,-98.881
1246.7,-102.495
1246.8,-106.086
1246.9,-109.654
1247.0,-113.199
1247.1,-116.723
1247.2,-120.226
1247.3,-123.708
1247.4,-127.17
1247.5,-130.613
1247.6,-134.036
1247.7,-137.441
1247.8,-140.828
1247.9,-144.197
1248.0,-147.55
1248.1,-150.886
1248.2,-154.20600000000002
1248.3,-157.51
1248.4,-160.799
1248.5,-164.07299999999998
1248.6,-167.334
1248.7,-170.58
1248.8,-173.81400000000002
1248.9,-177.03400000000002
1249.0,-180.24200000000002
1249.1,-183.438
1249.2,-186.622
1249.3,-189.796
1249.4,-192.958
1249.5,-196.111
1249.6,-199.253
1249.7,-202.386
1249.8,-205.51
1249.9,-208.62599999999998
1250.0,-211.733
1250.1,-214.832
1250.2,-217.924
1250.3,-221.00900000000001
1250.4,-224.088
1250.5,-227.16
1250.6,-230.227
1250.7,-233.28799999999998
1250.8,-236.345
1250.9,-239.39700000000002
1251.0,-242.44400000000002
1251.1,-245.488
1251.2,-248.52900000000002
1251.3,-251.567
1251.4,-254.60299999999998
1251.5,-257.63599999999997
1251.6,-260.668
1251.7,-263.699
1251.8,-266.72900000000004
1251.9,-269.758
1252.0,-272.788
1252.1,-275.818
1252.2,-278.85
1252.3,-281.883
1252.4,-284.91700000000003
1252.5,-287.954
1252.6,-290.994
1252.7,-294.038
1252.8,-297.085
1252.9,-300.13599999999997
1253.0,-303.193
1253.1,-306.254
1253.2,-309.322
1253.3,-312.395
1253.4,-315.476
1253.5,-318.564
1253.6,-321.66
1253.7,-324.765
1253.8,-327.87800000000004
1253.9,-331.00199999999995
1254.0,-334.13599999999997
1254.1,-337.281
1254.2,-340.43699999999995
1254.3,-343.606
1254.4,-346.787
1254.5,-349.983
1254.6,-353.19199999999995
1254.7,-356.417
1254.8,-359.658
1254.9,-362.915
1255.0,-366.189
1255.1,-369.48199999999997
1255.2,-372.79400000000004
1255.3,-376.126
1255.4,-379.478
1255.5,-382.853
1255.6,-386.25
1255.7,-389.671
1255.8,-393.11699999999996
1255.9,-396.589
1256.0,-400.088
1256.1,-403.615
1256.2,-407.171
1256.3,-410.75800000000004
1256.4,-414.37699999999995
1256.5,-418.029
1256.6,-421.716
1256.7,-425.439
1256.8,-429.2
1256.9,-433.0
1257.0,-436.841
1257.1,-440.725
1257.2,-444.654
1257.3,-448.629
1257.4,-452.652
1257.5,-456.727
1257.6,-460.85400000000004
1257.7,-465.036
1257.8,-469.276
1257.9,-473.57599999999996
1258.0,-477.939
1258.1,-482.36800000000005
1258.2,-486.865
1258.3,-491.435
1258.4,-496.079
1258.5,-500.80300000000005
1258.6,-505.60900000000004
1258.7,-510.50199999999995
1258.8,-515.485
1258.9,-520.564
1259.0,-525.742
1259.1,-531.026
1259.2,-536.42
1259.3,-541.93
1259.4,-547.562
1259.5,-553.323
1259.6,-559.22
1259.7,-565.26
1259.8,-571.451
1259.9,-577.802
1260.0,-584.322
1260.1,-591.021
1260.2,-597.91
1260.3,-605.001
1260.4,-612.305
1260.5,-619.837
1260.6,-627.611
1260.7,-635.644
1260.8,-643.952
1260.9,-652.555
1261.0,-661.4739999999999
1261.1,-670.7310000000001
1261.2,-680.352
1261.3,-690.363
1261.4,-700.796
1261.5,-711.685
1261.6,-723.065
1261.7,-734.98
1261.8,-747.4739999999999
1261.9,-760.6
1262.0,-774.416
1262.1,-788.987
1262.2,-804.387
1262.3,-820.699
1262.4,-838.0189999999999
1262.5,-856.457
1262.6,-876.137
1262.7,-897.205
1262.8,-919.829
1262.9,-944.206
1263.0,-970.569
1263.1,-999.19
1263.2,-1030.3980000000001
1263.3,-1064.587
1263.4,-1102.235
1263.5,-1143.927
1263.6,-1190.391
1263.7,-1242.539
1263.8,-1301.529
1263.9,-1368.8629999999998
1264.0,-1446.509
1264.1,-1537.115
1264.2,-1644.315
1264.3,-1773.243
1264.4,-1931.396
1264.5,-2130.1710000000003
1264.6,-2387.771
1264.7,-2735.1890000000003
1264.8,-3229.8320000000003
1264.9,-3991.272
1265.0,-5316.6359999999995
1265.1,-8204.769
1265.2,-19413.874
1265.3,42559.596
1265.4,9644.676
1265.5,5271.809
1265.6,3542.955
1265.7,2616.1420000000003
1265.8,2037.9189999999999
1265.9,1642.454
1266.0,1354.705
1266.1,1135.765
1266.2,963.451
1266.3,824.19
1266.4,709.211
1266.5,612.5930000000001
1266.6,530.195
1266.7,459.034
1266.8,396.907
1266.9,342.15
1267.0,293.486
1267.1,249.91400000000002
1267.2,210.643
1267.3,175.03599999999997
1267.4,142.576
1267.5,112.84
1267.6,85.476
1267.7,60.19
1267.8,36.735
1267.9,14.902000000000001
1268.0,-5.489
1268.1,-24.59
1268.2,-42.535
1268.3,-59.44
1268.4,-75.403
1268.5,-90.514
1268.6,-104.851
1268.7,-118.48
1268.8,-131.464
1268.9,-143.856
1269.0,-155.705
1269.1,-167.053
1269.2,-177.94099999999997
1269.3,-188.40200000000002
1269.4,-198.468
1269.5,-208.168
1269.6,-217.52900000000002
1269.7,-226.57299999999998
1269.8,-235.322
1269.9,-243.797
1270.0,-252.015
1270.1,-259.992
1270.2,-267.745
1270.3,-275.28700000000003
1270.4,-282.631
1270.5,-289.79
1270.6,-296.77299999999997
1270.7,-303.593
1270.8,-310.257
1270.9,-316.776
1271.0,-323.157
1271.1,-329.408
1271.2,-335.537
1271.3,-341.55
1271.4,-347.454
1271.5,-353.25300000000004
1271.6,-358.95599999999996
1271.7,-364.565
1271.8,-370.086
1271.9,-375.525
1272.0,-380.885
1272.1,-386.17
1272.2,-391.384
1272.3,-396.532
1272.4,-401.616
1272.5,-406.64
1272.6,-411.60699999999997
1272.7,-416.52
1272.8,-421.38199999999995
1272.9,-426.195
1273.0,-430.963
1273.1,-435.68800000000005
1273.2,-440.371
1273.3,-445.01599999999996
1273.4,-449.624
1273.5,-454.19800000000004
1273.6,-458.73900000000003
1273.7,-463.25
1273.8,-467.73199999999997
1273.9,-472.18699999999995
1274.0,-476.616
1274.1,-481.022
1274.2,-485.406
1274.3,-489.769
1274.4,-494.11300000000006
1274.5,-498.439
1274.6,-502.749
1274.7,-507.043
1274.8,-511.324
1274.9,-515.5930000000001
1275.0,-519.849
1275.1,-524.096
1275.2,-528.3340000000001
1275.3,-532.564
1275.4,-536.7869999999999
1275.5,-541.004
1275.6,-545.216
1275.7,-549.424
1275.8,-553.63
1275.9,-557.8340000000001
1276.0,-562.0369999999999
1276.1,-566.24
1276.2,-570.445
1276.3,-574.651
1276.4,-578.859
1276.5,-583.072
1276.6,-587.289
1276.7,-591.511
1276.8,-595.739
1276.9,-599.975
1277.0,-604.2180000000001
1277.1,-608.469
1277.2,-612.731
1277.3,-617.002
1277.4,-621.284
1277.5,-625.578
1277.6,-629.885
1277.7,-634.205
1277.8,-638.539
1277.9,-642.888
1278.0,-647.253
1278.1,-651.634
1278.2,-656.0319999999999
1278.3,-660.448
1278.4,-664.883
1278.5,-669.3380000000001
1278.6,-673.812
1278.7,-678.308
1278.8,-682.825
1278.9,-687.365
1279.0,-691.929
1279.1,-696.5160000000001
1279.2,-701.1289999999999
1279.3,-705.7669999999999
1279.4,-710.432
1279.5,-715.125
1279.6,-719.845
1279.7,-724.595
1279.8,-729.3739999999999
1279.9,-734.184
1280.0,-739.0260000000001
1280.1,-743.9
1280.2,-748.808
1280.3,-753.7489999999999
1280.4,-758.7260000000001
1280.5,-763.7389999999999
1280.6,-768.789
1280.7,-773.8760000000001
1280.8,-779.003
1280.9,-784.169
1281.0,-789.3760000000001
1281.1,-794.625
1281.2,-799.9169999999999
1281.3,-805.252
1281.4,-810.632
1281.5,-816.059
1281.6,-821.5319999999999
1281.7,-827.054
1281.8,-832.625
1281.9,-838.2460000000001
1282.0,-843.92
1282.1,-849.6460000000001
1282.2,-855.426
1282.3,-861.2610000000001
1282.4,-867.153
1282.5,-873.1030000000001
1282.6,-879.112
1282.7,-885.182
1282.8,-891.314
1282.9,-897.51
1283.0,-903.77
1283.1,-910.097
1283.2,-916.492
1283.3,-922.956
1283.4,-929.492
1283.5,-936.1
1283.6,-942.783
1283.7,-949.5419999999999
1283.8,-956.3789999999999
1283.9,-963.297
1284.0,-970.295
1284.1,-977.378
1284.2,-984.546
1284.3,-991.802
1284.4,-999.148
1284.5,-1006.585
1284.6,-1014.117
1284.7,-1021.745
1284.8,-1029.472
1284.9,-1037.299
1285.0,-1045.231
1285.1,-1053.269
1285.2,-1061.415
1285.3,-1069.673
1285.4,-1078.0439999999999
1285.5,-1086.5330000000001
1285.6,-1095.142
1285.7,-1103.875
1285.8,-1112.733
1285.9,-1121.721
1286.0,-1130.8410000000001
1286.1,-1140.098
1286.2,-1149.494
1286.3,-1159.0339999999999
1286.4,-1168.721
1286.5,-1178.559
1286.6,-1188.553
1286.7,-1198.7060000000001
1286.8,-1209.022
1286.9,-1219.507
1287.0,-1230.165
1287.1,-1241.001
1287.2,-1252.019
1287.3,-1263.225
1287.4,-1274.625
1287.5,-1286.223
1287.6,-1298.026
1287.7,-1310.039
1287.8,-1322.269
1287.9,-1334.723
1288.0,-1347.406
1288.1,-1360.326
1288.2,-1373.491
1288.3,-1386.9070000000002
1288.4,-1400.582
1288.5,-1414.526
1288.6,-1428.745
1288.7,-1443.25
1288.8,-1458.0479999999998
1288.9,-1473.151
1289.0,-1488.568
1289.1,-1504.309
1289.2,-1520.385
1289.3,-1536.808
1289.4,-1553.59
1289.5,-1570.743
1289.6,-1588.28
1289.7,-1606.2160000000001
1289.8,-1624.5639999999999
1289.9,-1643.339
1290.0,-1662.557
1290.1,-1682.235
1290.2,-1702.39
1290.3,-1723.0410000000002
1290.4,-1744.205
1290.5,-1765.905
1290.6,-1788.16
1290.7,-1810.994
1290.8,-1834.43
1290.9,-1858.4920000000002
1291.0,-1883.207
1291.1,-1908.602
1291.2,-1934.7079999999999
1291.3,-1961.5539999999999
1291.4,-1989.174
1291.5,-2017.602
1291.6,-2046.876
1291.7,-2077.034
1291.8,-2108.118
1291.9,-2140.173
1292.0,-2173.244
1292.1,-2207.383
1292.2,-2242.643
1292.3,-2279.081
1292.4,-2316.757
1292.5,-2355.738
1292.6,-2396.093
1292.7,-2437.8979999999997
1292.8,-2481.232
1292.9,-2526.1820000000002
1293.0,-2572.843
1293.1,-2621.314
1293.2,-2671.704
1293.3,-2724.131
1293.4,-2778.722
1293.5,-2835.615
1293.6,-2894.96
1293.7,-2956.921
1293.8,-3021.676
1293.9,-3089.42
1294.0,-3160.366
1294.1,-3234.748
1294.2,-3312.825
1294.3,-3394.8790000000004
1294.4,-3481.225
1294.5,-3572.211
1294.6,-3668.222
1294.7,-3769.6890000000003
1294.8,-3877.093
1294.9,-3990.973
1295.0,-4111.934
1295.1,-4240.662
1295.2,-4377.932
1295.3,-4524.626
1295.4,-4681.751
1295.5,-4850.465
1295.6,-5032.103
1295.7,-5228.210999999999
1295.8,-5440.596
1295.9,-5671.374
1296.0,-5923.048000000001
1296.1,-6198.596
1296.2,-6501.588000000001
1296.3,-6836.346
1296.4,-7208.148
1296.5,-7623.509
1296.6,-8090.569
1296.7,-8619.629
1296.8,-9223.921999999999
1296.9,-9920.734
1297.0,-10733.087
1297.1,-11692.333
1297.2,-12842.291000000001
1297.3,-14246.136999999999
1297.4,-15998.411
1297.5,-18247.244
1297.6,-21238.597999999998
1297.7,-25413.006
1297.8,-31645.394
1297.9,-41955.676
1298.0,-62292.528
1298.1,-121126.0
1298.2,-2261115.071
1298.3,135360.611
1298.4,65642.304
1298.5,43295.482
1298.6,32282.142999999996
1298.7,25724.426
1298.8,21373.328999999998
1298.9,18275.457
1299.0,15957.506000000001
1299.1,14157.861
1299.2,12720.146
1299.3,11545.143
1299.4,10566.864
1299.5,9739.713
1299.6,9031.175
1299.7,8417.438
1299.8,7880.6630000000005
1299.9,7407.226
1300.0,6986.535
1300.1,6610.2390000000005
1300.2,6271.659000000001
1300.3,5965.394
1300.4,5687.025
1300.5,5432.906
1300.6,5199.998
1300.7,4985.75
1300.8,4788.005
1300.9,4604.925
1301.0,4434.937
1301.1,4276.683
1301.2,4128.988
1301.3,3990.829
1301.4,3861.31
1301.5,3739.6440000000002
1301.6,3625.138
1301.7,3517.177
1301.8,3415.215
1301.9,3318.765
1302.0,3227.3909999999996
1302.1,3140.703
1302.2,3058.349
1302.3,2980.01
1302.4,2905.401
1302.5,2834.261
1302.6,2766.3520000000003
1302.7,2701.461
1302.8,2639.389
1302.9,2579.956
1303.0,2522.998
1303.1,2468.363
1303.2,2415.911
1303.3,2365.515
1303.4,2317.055
1303.5,2270.422
1303.6,2225.514
1303.7,2182.237
1303.8,2140.505
1303.9,2100.235
1304.0,2061.3520000000003
1304.1,2023.786
1304.2,1987.47
1304.3,1952.344
1304.4,1918.35
1304.5,1885.433
1304.6,1853.5439999999999
1304.7,1822.635
1304.8,1792.661
1304.9,1763.582
1305.0,1735.356
1305.1,1707.9479999999999
1305.2,1681.3220000000001
1305.3,1655.4460000000001
1305.4,1630.287
1305.5,1605.818
1305.6,1582.009
1305.7,1558.8339999999998
1305.8,1536.269
1305.9,1514.29
1306.0,1492.874
1306.1,1472.0
1306.2,1451.648
1306.3,1431.7979999999998
1306.4,1412.433
1306.5,1393.5339999999999
1306.6,1375.085
1306.7,1357.07
1306.8,1339.475
1306.9,1322.2839999999999
1307.0,1305.485
1307.1,1289.063
1307.2,1273.006
1307.3,1257.303
1307.4,1241.942
1307.5,1226.912
1307.6,1212.203
1307.7,1197.803
1307.8,1183.705
1307.9,1169.8980000000001
1308.0,1156.373
1308.1,1143.123
1308.2,1130.139
1308.3,1117.413
1308.4,1104.937
1308.5,1092.705
1308.6,1080.7089999999998
1308.7,1068.943
1308.8,1057.4
1308.9,1046.0739999999998
1309.0,1034.9589999999998
1309.1,1024.049
1309.2,1013.3389999999999
1309.3,1002.824
1309.4,992.498
1309.5,982.3560000000001
1309.6,972.393
1309.7,962.6060000000001
1309.8,952.9889999999999
1309.9,943.538
1310.0,934.2489999999999
1310.1,925.117
1310.2,916.14
1310.3,907.313
1310.4,898.633
1310.5,890.095
1310.6,881.697
1310.7,873.436
1310.8,865.308
1310.9,857.309
1311.0,849.438
1311.1,841.691
1311.2,834.066
1311.3,826.559
1311.4,819.168
1311.5,811.89
1311.6,804.7230000000001
1311.7,797.665
1311.8,790.7130000000001
1311.9,783.8639999999999
1312.0,777.118
1312.1,770.471
1312.2,763.921
1312.3,757.467
1312.4,751.1060000000001
1312.5,744.837
1312.6,738.658
1312.7,732.566
1312.8,726.56
1312.9,720.6389999999999
1313.0,714.801
1313.1,709.043
1313.2,703.3660000000001
1313.3,697.7660000000001
1313.4,692.243
1313.5,686.795
1313.6,681.42
1313.7,676.118
1313.8,670.887
1313.9,665.725
1314.0,660.632
1314.1,655.605
1314.2,650.645
1314.3,645.75
1314.4,640.918
1314.5,636.148
1314.6,631.44
1314.7,626.7919999999999
1314.8,622.203
1314.9,617.672
1315.0,613.1990000000001
1315.1,608.7819999999999
1315.2,604.42
1315.3,600.113
1315.4,595.859
1315.5,591.658
1315.6,587.508
1315.7,583.409
1315.8,579.361
1315.9,575.361
1316.0,571.41
1316.1,567.507
1316.2,563.651
1316.3,559.841
1316.4,556.077
1316.5,552.357
1316.6,548.681
1316.7,545.049
1316.8,541.46
1316.9,537.913
1317.0,534.4069999999999
1317.1,530.943
1317.2,527.518
1317.3,524.134
1317.4,520.788
1317.5,517.481
1317.6,514.2130000000001
1317.7,510.981
1317.8,507.787
1317.9,504.629
1318.0,501.50699999999995
1318.1,498.421
1318.2,495.369
1318.3,492.352
1318.4,489.369
1318.5,486.42
1318.6,483.50300000000004
1318.7,480.62
1318.8,477.76800000000003
1318.9,474.94800000000004
1319.0,472.16
1319.1,469.403
1319.2,466.676
1319.3,463.98
1319.4,461.31300000000005
1319.5,458.676
1319.6,456.06800000000004
1319.7,453.48900000000003
1319.8,450.93800000000005
1319.9,448.415
1320.0,445.92
1320.1,443.452
1320.2,441.01099999999997
1320.3,438.597
1320.4,436.209
1320.5,433.848
1320.6,431.51199999999994
1320.7,429.20099999999996
1320.8,426.916
1320.9,424.656
1321.0,422.42
1321.1,420.208
1321.2,418.02099999999996
1321.3,415.858
1321.4,413.718
1321.5,411.601
1321.6,409.50699999999995
1321.7,407.436
1321.8,405.38800000000003
1321.9,403.36199999999997
1322.0,401.358
1322.1,399.375
1322.2,397.415
1322.3,395.476
1322.4,393.55800000000005
1322.5,391.66
1322.6,389.784
1322.7,387.92800000000005
1322.8,386.093
1322.9,384.277
1323.0,382.48199999999997
1323.1,380.70599999999996
1323.2,378.95
1323.3,377.213
1323.4,375.495
1323.5,373.796
1323.6,372.11699999999996
1323.7,370.455
1323.8,368.81199999999995
1323.9,367.18800000000005
1324.0,365.582
1324.1,363.99300000000005
1324.2,362.423
1324.3,360.87
1324.4,359.334
1324.5,357.816
1324.6,356.315
1324.7,354.83099999999996
1324.8,353.36400000000003
1324.9,351.914
1325.0,350.481
1325.1,349.06300000000005
1325.2,347.663
1325.3,346.278
1325.4,344.91
1325.5,343.55699999999996
1325.6,342.22
1325.7,340.899
1325.8,339.594
1325.9,338.30400000000003
1326.0,337.029
1326.1,335.77
1326.2,334.526
1326.3,333.296
1326.4,332.082
1326.5,330.88199999999995
1326.6,329.69699999999995
1326.7,328.527
1326.8,327.371
1326.9,326.22900000000004
1327.0,325.10200000000003
1327.1,323.98900000000003
1327.2,322.89
1327.3,321.80400000000003
1327.4,320.733
1327.5,319.676
1327.6,318.632
1327.7,317.601
1327.8,316.585
1327.9,315.58099999999996
1328.0,314.591
1328.1,313.61400000000003
1328.2,312.651
1328.3,311.7
1328.4,310.762
1328.5,309.83799999999997
1328.6,308.926
1328.7,308.027
1328.8,307.14
1328.9,306.267
1329.0,305.405
1329.1,304.557
1329.2,303.72
1329.3,302.89599999999996
1329.4,302.084
1329.5,301.285
1329.6,300.497
1329.7,299.722
1329.8,298.95799999999997
1329.9,298.207
1330.0,297.467
1330.1,296.73900000000003
1330.2,296.02299999999997
1330.3,295.319
1330.4,294.626
1330.5,293.944
1330.6,293.274
1330.7,292.616
1330.8,291.969
1330.9,291.33299999999997
1331.0,290.709
1331.1,290.096
1331.2,289.494
1331.3,288.903
1331.4,288.323
1331.5,287.754
1331.6,287.197
1331.7,286.65
1331.8,286.11400000000003
1331.9,285.58799999999997
1332.0,285.074
1332.1,284.57
1332.2,284.077
1332.3,283.594
1332.4,283.122
1332.5,282.661
1332.6,282.21
1332.7,281.77
1332.8,281.34
1332.9,280.92
1333.0,280.51099999999997
1333.1,280.112
1333.2,279.723
1333.3,279.344
1333.4,278.975
1333.5,278.617
1333.6,278.269
1333.7,277.93
1333.8,277.60200000000003
1333.9,277.284
1334.0,276.975
1334.1,276.676
1334.2,276.388
1334.3,276.10900000000004
1334.4,275.839
1334.5,275.58
1334.6,275.33
1334.7,275.089
1334.8,274.85900000000004
1334.9,274.638
1335.0,274.426
1335.1,274.224
1335.2,274.031
1335.3,273.848
1335.4,273.67400000000004
1335.5,273.509
1335.6,273.35400000000004
1335.7,273.20799999999997
1335.8,273.07099999999997
1335.9,272.943
1336.0,272.824
1336.1,272.715
1336.2,272.61400000000003
1336.3,272.52299999999997
1336.4,272.44
1336.5,272.367
1336.6,272.302
1336.7,272.246
1336.8,272.199
1336.9,272.161
1337.0,272.131
1337.1,272.11
1337.2,272.098
1337.3,272.094
1337.4,272.099
1337.5,272.112
1337.6,272.133
1337.7,272.164
1337.8,272.202
1337.9,272.249
1338.0,272.30400000000003
1338.1,272.367
1338.2,272.438
1338.3,272.517
1338.4,272.605
1338.5,272.7
1338.6,272.803
1338.7,272.914
1338.8,273.033
1338.9,273.159
1339.0,273.29400000000004
1339.1,273.435
1339.2,273.585
1339.3,273.742
1339.4,273.906
1339.5,274.077
1339.6,274.256
1339.7,274.442
1339.8,274.635
1339.9,274.835
1340.0,275.041
1340.1,275.255
1340.2,275.476
1340.3,275.703
1340.4,275.936
1340.5,276.176
1340.6,276.423
1340.7,276.676
1340.8,276.935
1340.9,277.199
1341.0,277.47
1341.1,277.747
1341.2,278.029
1341.3,278.317
1341.4,278.611
1341.5,278.909
1341.6,279.21299999999997
1341.7,279.522
1341.8,279.836
1341.9,280.154
1342.0,280.47700000000003
1342.1,280.80400000000003
1342.2,281.13599999999997
1342.3,281.472
1342.4,281.811
1342.5,282.155
1342.6,282.502
1342.7,282.85200000000003
1342.8,283.205
1342.9,283.561
1343.0,283.92
1343.1,284.281
1343.2,284.645
1343.3,285.01
1343.4,285.377
1343.5,285.746
1343.6,286.115
1343.7,286.486
1343.8,286.857
1343.9,287.228
1344.0,287.6
1344.1,287.971
1344.2,288.341
1344.3,288.71
1344.4,289.078
1344.5,289.444
1344.6,289.807
1344.7,290.168
1344.8,290.526
1344.9,290.88
1345.0,291.231
1345.1,291.577
1345.2,291.918
1345.3,292.253
1345.4,292.58299999999997
1345.5,292.905
1345.6,293.221
1345.7,293.529
1345.8,293.828
1345.9,294.118
1346.0,294.399
1346.1,294.66900000000004
1346.2,294.927
1346.3,295.17400000000004
1346.4,295.408
1346.5,295.628
1346.6,295.83299999999997
1346.7,296.02299999999997
1346.8,296.19599999999997
1346.9,296.35200000000003
1347.0,296.48900000000003
1347.1,296.607
1347.2,296.703
1347.3,296.778
1347.4,296.829
1347.5,296.856
1347.6,296.857
1347.7,296.83099999999996
1347.8,296.775
1347.9,296.689
1348.0,296.57099999999997
1348.1,296.41900000000004
1348.2,296.232
1348.3,296.007
1348.4,295.742
1348.5,295.436
1348.6,295.086
1348.7,294.69
1348.8,294.246
1348.9,293.75
1349.0,293.20099999999996
1349.1,292.595
1349.2,291.93
1349.3,291.202
1349.4,290.408
1349.5,289.545
1349.6,288.60900000000004
1349.7,287.596
1349.8,286.502
1349.9,285.323
1350.0,284.055
1350.1,282.692
1350.2,281.22900000000004
1350.3,279.66200000000003
1350.4,277.98400000000004
1350.5,276.19
1350.6,274.27299999999997
1350.7,272.226
1350.8,270.04200000000003
1350.9,267.71299999999997
1351.0,265.232
1351.1,262.589
1351.2,259.775
1351.3,256.781
1351.4,253.59599999999998
1351.5,250.208
1351.6,246.606
1351.7,242.77700000000002
1351.8,238.706
1351.9,234.37900000000002
1352.0,229.78
1352.1,224.891
1352.2,219.695
1352.3,214.17
1352.4,208.297
1352.5,202.05
1352.6,195.405
1352.7,188.335
1352.8,180.80900000000003
1352.9,172.795
1353.0,164.25799999999998
1353.1,155.16
1353.2,145.457
1353.3,135.10399999999998
1353.4,124.05
1353.5,112.23899999999999
1353.6,99.60799999999999
1353.7,86.09100000000001
1353.8,71.611
1353.9,56.083
1354.0,39.415
1354.1,21.500999999999998
1354.2,2.2230000000000003
1354.3,-18.55
1354.4,-40.968
1354.5,-65.2
1354.6,-91.439
1354.7,-119.905
1354.8,-150.85
1354.9,-184.56599999999997
1355.0,-221.389
1355.1,-261.715
1355.2,-306.003
1355.3,-354.8
1355.4,-408.75300000000004
1355.5,-468.64
1355.6,-535.399
1355.7,-610.175
1355.8,-694.3810000000001
1355.9,-789.78
1356.0,-898.5980000000001
1356.1,-1023.688
1356.2,-1168.772
1356.3,-1338.793
1356.4,-1540.46
1356.5,-1783.121
1356.6,-2080.1929999999998
1356.7,-2451.651
1356.8,-2928.59
1356.9,-3562.218
1357.0,-4443.245
1357.1,-5749.081
1357.2,-7879.936
1357.3,-11968.622
1357.4,-22971.352000000003
1357.5,-152925.06900000002
1357.6,36101.879
1357.7,16828.427
1357.8,11255.451000000001
1357.9,8609.009
1358.0,7065.735
1358.1,6056.545
1358.2,5346.38
1358.3,4820.497
1358.4,4416.222
1358.5,4096.424
1358.6,3837.7070000000003
1358.7,3624.594
1358.8,3446.4440000000004
1358.9,3295.6929999999998
1359.0,3166.824
1359.1,3055.7140000000004
1359.2,2959.2209999999995
1359.3,2874.91
1359.4,2800.865
1359.5,2735.555
1359.6,2677.7459999999996
1359.7,2626.4309999999996
1359.8,2580.777
1359.9,2540.096
1360.0,2503.8070000000002
1360.1,2471.423
1360.2,2442.528
1360.3,2416.768
1360.4,2393.837
1360.5,2373.471
1360.6,2355.4429999999998
1360.7,2339.552
1360.8,2325.623
1360.9,2313.5029999999997
1361.0,2303.056
1361.1,2294.1639999999998
1361.2,2286.719
1361.3,2280.627
1361.4,2275.804
1361.5,2272.175
1361.6,2269.673
1361.7,2268.237
1361.8,2267.813
1361.9,2268.353
1362.0,2269.813
1362.1,2272.154
1362.2,2275.34
1362.3,2279.341
1362.4,2284.126
1362.5,2289.6710000000003
1362.6,2295.952
1362.7,2302.949
1362.8,2310.644
1362.9,2319.02
1363.0,2328.062
1363.1,2337.759
1363.2,2348.097
1363.3,2359.069
1363.4,2370.666
1363.5,2382.88
1363.6,2395.706
1363.7,2409.14
1363.8,2423.177
1363.9,2437.815
1364.0,2453.053
1364.1,2468.889
1364.2,2485.326
1364.3,2502.363
1364.4,2520.002
1364.5,2538.2470000000003
1364.6,2557.1020000000003
1364.7,2576.57
1364.8,2596.658
1364.9,2617.371
1365.0,2638.716
1365.1,2660.7009999999996
1365.2,2683.3340000000003
1365.3,2706.625
1365.4,2730.583
1365.5,2755.219
1365.6,2780.5440000000003
1365.7,2806.572
1365.8,2833.315
1365.9,2860.7870000000003
1366.0,2889.0040000000004
1366.1,2917.9809999999998
1366.2,2947.7340000000004
1366.3,2978.282
1366.4,3009.6440000000002
1366.5,3041.8379999999997
1366.6,3074.886
1366.7,3108.809
1366.8,3143.631
1366.9,3179.375
1367.0,3216.0679999999998
1367.1,3253.735
1367.2,3292.405
1367.3,3332.1079999999997
1367.4,3372.875
1367.5,3414.738
1367.6,3457.7309999999998
1367.7,3501.8909999999996
1367.8,3547.255
1367.9,3593.864
1368.0,3641.759
1368.1,3690.9840000000004
1368.2,3741.587
1368.3,3793.615
1368.4,3847.1209999999996
1368.5,3902.158
1368.6,3958.784
1368.7,4017.059
1368.8,4077.047
1368.9,4138.815
1369.0,4202.435
1369.1,4267.981
1369.2,4335.532999999999
1369.3,4405.175
1369.4,4476.996
1369.5,4551.092000000001
1369.6,4627.561
1369.7,4706.512
1369.8,4788.056
1369.9,4872.314
1370.0,4959.415
1370.1,5049.495
1370.2,5142.7
1370.3,5239.184
1370.4,5339.116
1370.5,5442.670999999999
1370.6,5550.041
1370.7,5661.43
1370.8,5777.058000000001
1370.9,5897.159000000001
1371.0,6021.988
1371.1,6151.818
1371.2,6286.945
1371.3,6427.686
1371.4,6574.389
1371.5,6727.427
1371.6,6887.206999999999
1371.7,7054.172
1371.8,7228.803000000001
1371.9,7411.628000000001
1372.0,7603.223000000001
1372.1,7804.219
1372.2,8015.311
1372.3,8237.261999999999
1372.4,8470.917
1372.5,8717.208
1372.6,8977.171999999999
1372.7,9251.962
1372.8,9542.862
1372.9,9851.311
1373.0,10178.927
1373.1,10527.528
1373.2,10899.176000000001
1373.3,11296.207
1373.4,11721.286
1373.5,12177.466999999999
1373.6,12668.261999999999
1373.7,13197.731000000002
1373.8,13770.598999999998
1373.9,14392.391000000001
1374.0,15069.613000000001
1374.1,15809.978000000001
1374.2,16622.697
1374.3,17518.871
1374.4,18511.987
1374.5,19618.609
1374.6,20859.303
1374.7,22259.917999999998
1374.8,23853.412
1374.9,25682.461
1375.0,27803.338
1375.1,30291.79
1375.2,33252.263999999996
1375.3,36832.916
1375.4,41251.154
1375.5,46839.449
1375.6,54133.070999999996
1375.7,64052.523
1375.8,78326.166
1375.9,100625.546
1376.0,140363.975
1376.1,231125.8
1376.2,647336.8420000001
1376.3,-818852.679
1376.4,-251802.081
1376.5,-149127.895
1376.6,-106111.46800000001
1376.7,-82463.618
1376.8,-67507.495
1376.9,-57195.552
1377.0,-49655.695
1377.1,-43902.843
1377.2,-39369.227999999996
1377.3,-35704.568999999996
1377.4,-32681.037999999997
1377.5,-30144.05
1377.6,-27985.021
1377.7,-26125.44
1377.8,-24507.132999999998
1377.9,-23086.08
1378.0,-21828.353
1378.1,-20707.386000000002
1378.2,-19702.077
1378.3,-18795.452
1378.4,-17973.707
1378.5,-17225.495
1378.6,-16541.406000000003
1378.7,-15913.571000000002
1378.8,-15335.358
1378.9,-14801.138
1379.0,-14306.101
1379.1,-13846.117
1379.2,-13417.613000000001
1379.3,-13017.489
1379.4,-12643.037
1379.5,-12291.883999999998
1379.6,-11961.941
1379.7,-11651.361
1379.8,-11358.506000000001
1379.9,-11081.918
1380.0,-10820.293
1380.1,-10572.466
1380.2,-10337.386
1380.3,-10114.11
1380.4,-9901.784
1380.5,-9699.634
1380.6,-9506.958
1380.7,-9323.118
1380.8,-9147.530999999999
1380.9,-8979.665
1381.0,-8819.032
1381.1,-8665.184000000001
1381.2,-8517.712
1381.3,-8376.235999999999
1381.4,-8240.408000000001
1381.5,-8109.906
1381.6,-7984.43
1381.7,-7863.705
1381.8,-7747.475
1381.9,-7635.501
1382.0,-7527.561
1382.1,-7423.451
1382.2,-7322.976
1382.3,-7225.956999999999
1382.4,-7132.227
1382.5,-7041.6269999999995
1382.6,-6954.012
1382.7,-6869.241
1382.8,-6787.187
1382.9,-6707.727
1383.0,-6630.746
1383.1,-6556.1359999999995
1383.2,-6483.797
1383.3,-6413.630999999999
1383.4,-6345.548000000001
1383.5,-6279.463000000001
1383.6,-6215.295
1383.7,-6152.968000000001
1383.8,-6092.409000000001
1383.9,-6033.549
1384.0,-5976.323
1384.1,-5920.670999999999
1384.2,-5866.531999999999
1384.3,-5813.852
1384.4,-5762.576999999999
1384.5,-5712.656999999999
1384.6,-5664.044
1384.7,-5616.693
1384.8,-5570.56
1384.9,-5525.603
1385.0,-5481.783
1385.1,-5439.063
1385.2,-5397.406
1385.3,-5356.776999999999
1385.4,-5317.144
1385.5,-5278.476
1385.6,-5240.741
1385.7,-5203.912
1385.8,-5167.960999999999
1385.9,-5132.861
1386.0,-5098.585999999999
1386.1,-5065.113
1386.2,-5032.419
1386.3,-5000.48
1386.4,-4969.275
1386.5,-4938.784000000001
1386.6,-4908.987
1386.7,-4879.865
1386.8,-4851.399
1386.9,-4823.572
1387.0,-4796.366
1387.1,-4769.767
1387.2,-4743.7570000000005
1387.3,-4718.322
1387.4,-4693.447
1387.5,-4669.1179999999995
1387.6,-4645.322
1387.7,-4622.045999999999
1387.8,-4599.276
1387.9,-4577.001
1388.0,-4555.21
1388.1,-4533.89
1388.2,-4513.032
1388.3,-4492.624
1388.4,-4472.656
1388.5,-4453.119000000001
1388.6,-4434.003
1388.7,-4415.299
1388.8,-4396.998
1388.9,-4379.090999999999
1389.0,-4361.571
1389.1,-4344.428
1389.2,-4327.657
1389.3,-4311.248
1389.4,-4295.195
1389.5,-4279.491
1389.6,-4264.129
1389.7,-4249.102
1389.8,-4234.405
1389.9,-4220.03
1390.0,-4205.973
1390.1,-4192.226
1390.2,-4178.786
1390.3,-4165.645
1390.4,-4152.8
1390.5,-4140.245
1390.6,-4127.975
1390.7,-4115.985
1390.8,-4104.272
1390.9,-4092.829
1391.0,-4081.6540000000005
1391.1,-4070.741
1391.2,-4060.087
1391.3,-4049.688
1391.4,-4039.54
1391.5,-4029.64
1391.6,-4019.9840000000004
1391.7,-4010.5679999999998
1391.8,-4001.389
1391.9,-3992.4440000000004
1392.0,-3983.73
1392.1,-3975.244
1392.2,-3966.982
1392.3,-3958.9429999999998
1392.4,-3951.123
1392.5,-3943.5190000000002
1392.6,-3936.13
1392.7,-3928.953
1392.8,-3921.985
1392.9,-3915.224
1393.0,-3908.667
1393.1,-3902.3140000000003
1393.2,-3896.1609999999996
1393.3,-3890.2070000000003
1393.4,-3884.45
1393.5,-3878.887
1393.6,-3873.518
1393.7,-3868.341
1393.8,-3863.353
1393.9,-3858.554
1394.0,-3853.941
1394.1,-3849.514
1394.2,-3845.2709999999997
1394.3,-3841.211
1394.4,-3837.333
1394.5,-3833.635
1394.6,-3830.116
1394.7,-3826.775
1394.8,-3823.612
1394.9,-3820.625
1395.0,-3817.813
1395.1,-3815.176
1395.2,-3812.7129999999997
1395.3,-3810.423
1395.4,-3808.305
1395.5,-3806.36
1395.6,-3804.585
1395.7,-3802.982
1395.8,-3801.5490000000004
1395.9,-3800.285
1396.0,-3799.192
1396.1,-3798.268
1396.2,-3797.513
1396.3,-3796.927
1396.4,-3796.51
1396.5,-3796.262
1396.6,-3796.1820000000002
1396.7,-3796.2709999999997
1396.8,-3796.5290000000005
1396.9,-3796.9559999999997
1397.0,-3797.553
1397.1,-3798.3179999999998
1397.2,-3799.2540000000004
1397.3,-3800.3590000000004
1397.4,-3801.635
1397.5,-3803.0820000000003
1397.6,-3804.7
1397.7,-3806.49
1397.8,-3808.453
1397.9,-3810.5890000000004
1398.0,-3812.9
1398.1,-3815.385
1398.2,-3818.045
1398.3,-3820.882
1398.4,-3823.897
1398.5,-3827.09
1398.6,-3830.4629999999997
1398.7,-3834.0170000000003
1398.8,-3837.7529999999997
1398.9,-3841.672
1399.0,-3845.775
1399.1,-3850.065
1399.2,-3854.542
1399.3,-3859.208
1399.4,-3864.065
1399.5,-3869.114
1399.6,-3874.357
1399.7,-3879.796
1399.8,-3885.433
1399.9,-3891.27
1400.0,-3897.309
1400.1,-3903.551
1400.2,-3910.0
1400.3,-3916.658
1400.4,-3923.527
1400.5,-3930.6090000000004
1400.6,-3937.908
1400.7,-3945.425
1400.8,-3953.164
1400.9,-3961.127
1401.0,-3969.3179999999998
1401.1,-3977.739
1401.2,-3986.395
1401.3,-3995.2870000000003
1401.4,-4004.42
1401.5,-4013.797
1401.6,-4023.422
1401.7,-4033.2990000000004
1401.8,-4043.4320000000002
1401.9,-4053.824
1402.0,-4064.48
1402.1,-4075.4040000000005
1402.2,-4086.6020000000003
1402.3,-4098.077
1402.4,-4109.834
1402.5,-4121.878
1402.6,-4134.215999999999
1402.7,-4146.851
1402.8,-4159.79
1402.9,-4173.038
1403.0,-4186.601
1403.1,-4200.485
1403.2,-4214.698
1403.3,-4229.244000000001
1403.4,-4244.1320000000005
1403.5,-4259.3679999999995
1403.6,-4274.96
1403.7,-4290.915
1403.8,-4307.241
1403.9,-4323.945
1404.0,-4341.038
1404.1,-4358.527
1404.2,-4376.420999999999
1404.3,-4394.73
1404.4,-4413.463
1404.5,-4432.630999999999
1404.6,-4452.245
1404.7,-4472.314
1404.8,-4492.85
1404.9,-4513.866
1405.0,-4535.372
1405.1,-4557.383
1405.2,-4579.91
1405.3,-4602.969
1405.4,-4626.572
1405.5,-4650.734
1405.6,-4675.472
1405.7,-4700.8009999999995
1405.8,-4726.737
1405.9,-4753.299
1406.0,-4780.504
1406.1,-4808.371
1406.2,-4836.919
1406.3,-4866.17
1406.4,-4896.144
1406.5,-4926.8640000000005
1406.6,-4958.354
1406.7,-4990.6359999999995
1406.8,-5023.738
1406.9,-5057.686
1407.0,-5092.5070000000005
1407.1,-5128.231
1407.2,-5164.888
1407.3,-5202.51
1407.4,-5241.130999999999
1407.5,-5280.786
1407.6,-5321.5109999999995
1407.7,-5363.347
1407.8,-5406.331999999999
1407.9,-5450.5109999999995
1408.0,-5495.928000000001
1408.1,-5542.63
1408.2,-5590.668000000001
1408.3,-5640.094
1408.4,-5690.963000000001
1408.5,-5743.335
1408.6,-5797.27
1408.7,-5852.835
1408.8,-5910.098000000001
1408.9,-5969.132
1409.0,-6030.016
1409.1,-6092.83
1409.2,-6157.6630000000005
1409.3,-6224.607
1409.4,-6293.76
1409.5,-6365.227
1409.6,-6439.12
1409.7,-6515.557
1409.8,-6594.666
1409.9,-6676.581
1410.0,-6761.4490000000005
1410.1,-6849.424
1410.2,-6940.672
1410.3,-7035.3730000000005
1410.4,-7133.718000000001
1410.5,-7235.914000000001
1410.6,-7342.184
1410.7,-7452.767
1410.8,-7567.924
1410.9,-7687.935
1411.0,-7813.104
1411.1,-7943.764
1411.2,-8080.272
1411.3,-8223.021999999999
1411.4,-8372.442
1411.5,-8528.998
1411.6,-8693.205
1411.7,-8865.627
1411.8,-9046.884
1411.9,-9237.66
1412.0,-9438.714
1412.1,-9650.886
1412.2,-9875.110999999999
1412.3,-10112.433
1412.4,-10364.017
1412.5,-10631.175
1412.6,-10915.382
1412.7,-11218.308
1412.8,-11541.846000000001
1412.9,-11888.156
1413.0,-12259.708999999999
1413.1,-12659.348
1413.2,-13090.36
1413.3,-13556.566
1413.4,-14062.435
1413.5,-14613.223999999998
1413.6,-15215.165
1413.7,-15875.697
1413.8,-16603.777
1413.9,-17410.287
1414.0,-18308.576
1414.1,-19315.209
1414.2,-20450.991
1414.3,-21742.422000000002
1414.4,-23223.78
1414.5,-24940.212000000003
1414.6,-26952.404
1414.7,-29343.897999999997
1414.8,-32232.972999999998
1414.9,-35792.794
1415.0,-40287.422
1415.1,-46140.468
1415.2,-54077.037000000004
1415.3,-65450.004
1415.4,-83107.057
1415.5,-114243.2
1415.6,-183816.86
1415.7,-477760.99299999996
1415.8,776125.1490000001
1415.9,212546.038
1416.0,122600.73300000001
1416.1,85881.385
1416.2,65930.326
1416.3,53396.884000000005
1416.4,44793.045999999995
1416.5,38521.367999999995
1416.6,33746.925
1416.7,29990.845
1416.8,26958.796000000002
1416.9,24459.901
1417.0,22364.96
1417.1,20583.396
1417.2,19049.828
1417.3,17715.881
1417.4,16544.991
1417.5,15509.011
1417.6,14585.918
1417.7,13758.237
1417.8,13011.921
1417.9,12335.551000000001
1418.0,11719.751
1418.1,11156.746000000001
1418.2,10640.038999999999
1418.3,10164.157
1418.4,9724.455
1418.5,9316.968
1418.6,8938.291
1418.7,8585.479
1418.8,8255.979
1418.9,7947.561
1419.0,7658.27
1419.1,7386.387
1419.2,7130.393
1419.3,6888.938
1419.4,6660.8240000000005
1419.5,6444.979
1419.6,6240.444
1419.7,6046.356
1419.8,5861.938
1419.9,5686.4890000000005
1420.0,5519.374
1420.1,5360.015
1420.2,5207.888
1420.3,5062.514
1420.4,4923.456
1420.5,4790.313
1420.6,4662.719
1420.7,4540.335
1420.8,4422.851
1420.9,4309.98
1421.0,4201.459
1421.1,4097.041
1421.2,3996.5
1421.3,3899.627
1421.4,3806.224
1421.5,3716.111
1421.6,3629.118
1421.7,3545.087
1421.8,3463.8709999999996
1421.9,3385.3309999999997
1422.0,3309.3390000000004
1422.1,3235.7740000000003
1422.2,3164.522
1422.3,3095.4770000000003
1422.4,3028.538
1422.5,2963.613
1422.6,2900.612
1422.7,2839.452
1422.8,2780.053
1422.9,2722.343
1423.0,2666.25
1423.1,2611.708
1423.2,2558.654
1423.3,2507.029
1423.4,2456.777
1423.5,2407.844
1423.6,2360.179
1423.7,2313.734
1423.8,2268.464
1423.9,2224.325
1424.0,2181.275
1424.1,2139.275
1424.2,2098.2889999999998
1424.3,2058.279
1424.4,2019.211
1424.5,1981.0539999999999
1424.6,1943.776
1424.7,1907.348
1424.8,1871.74
1424.9,1836.9270000000001
1425.0,1802.881
1425.1,1769.579
1425.2,1736.996
1425.3,1705.11
1425.4,1673.898
1425.5,1643.34
1425.6,1613.4160000000002
1425.7,1584.106
1425.8,1555.392
1425.9,1527.257
1426.0,1499.682
1426.1,1472.652
1426.2,1446.151
1426.3,1420.164
1426.4,1394.6760000000002
1426.5,1369.672
1426.6,1345.14
1426.7,1321.067
1426.8,1297.4389999999999
1426.9,1274.245
1427.0,1251.473
1427.1,1229.112
1427.2,1207.15
1427.3,1185.578
1427.4,1164.385
1427.5,1143.5610000000001
1427.6,1123.097
1427.7,1102.984
1427.8,1083.212
1427.9,1063.775
1428.0,1044.662
1428.1,1025.866
1428.2,1007.3789999999999
1428.3,989.195
1428.4,971.304
1428.5,953.702
1428.6,936.38
1428.7,919.332
1428.8,902.552
1428.9,886.034
1429.0,869.77
1429.1,853.757
1429.2,837.988
1429.3,822.457
1429.4,807.159
1429.5,792.0889999999999
1429.6,777.243
1429.7,762.6139999999999
1429.8,748.199
1429.9,733.993
1430.0,719.99
1430.1,706.188
1430.2,692.582
1430.3,679.1669999999999
1430.4,665.94
1430.5,652.896
1430.6,640.0319999999999
1430.7,627.345
1430.8,614.83
1430.9,602.485
1431.0,590.305
1431.1,578.288
1431.2,566.429
1431.3,554.727
1431.4,543.179
1431.5,531.78
1431.6,520.528
1431.7,509.421
1431.8,498.455
1431.9,487.62800000000004
1432.0,476.93699999999995
1432.1,466.38
1432.2,455.955
1432.3,445.658
1432.4,435.48699999999997
1432.5,425.44
1432.6,415.51599999999996
1432.7,405.71
1432.8,396.023
1432.9,386.45
1433.0,376.991
1433.1,367.64300000000003
1433.2,358.405
1433.3,349.273
1433.4,340.24800000000005
1433.5,331.325
1433.6,322.505
1433.7,313.785
1433.8,305.163
1433.9,296.638
1434.0,288.20799999999997
1434.1,279.872
1434.2,271.627
1434.3,263.473
1434.4,255.408
1434.5,247.43
1434.6,239.53799999999998
1434.7,231.731
1434.8,224.007
1434.9,216.365
1435.0,208.803
1435.1,201.321
1435.2,193.916
1435.3,186.58900000000003
1435.4,179.33599999999998
1435.5,172.15900000000002
1435.6,165.054
1435.7,158.02100000000002
1435.8,151.06
1435.9,144.168
1436.0,137.345
1436.1,130.589
1436.2,123.90100000000001
1436.3,117.27799999999999
1436.4,110.719
1436.5,104.225
1436.6,97.79299999999999
1436.7,91.42299999999999
1436.8,85.11399999999999
1436.9,78.86399999999999
1437.0,72.67399999999999
1437.1,66.542
1437.2,60.468
1437.3,54.45
1437.4,48.488
1437.5,42.581
1437.6,36.728
1437.7,30.928
1437.8,25.182
1437.9,19.486
1438.0,13.843
1438.1,8.249
1438.2,2.705
1438.3,-2.7889999999999997
1438.4,-8.236
1438.5,-13.634
1438.6,-18.986
1438.7,-24.291
1438.8,-29.55
1438.9,-34.765
1439.0,-39.934
1439.1,-45.06
1439.2,-50.143
1439.3,-55.181999999999995
1439.4,-60.18
1439.5,-65.13600000000001
1439.6,-70.051
1439.7,-74.925
1439.8,-79.759
1439.9,-84.554
1440.0,-89.31
1440.1,-94.027
1440.2,-98.70700000000001
1440.3,-103.34899999999999
1440.4,-107.954
1440.5,-112.522
1440.6,-117.054
1440.7,-121.551
1440.8,-126.01299999999999
1440.9,-130.44
1441.0,-134.833
1441.1,-139.192
1441.2,-143.517
1441.3,-147.81
1441.4,-152.069
1441.5,-156.297
1441.6,-160.493
1441.7,-164.658
1441.8,-168.791
1441.9,-172.894
1442.0,-176.967
1442.1,-181.01
1442.2,-185.023
1442.3,-189.007
1442.4,-192.96200000000002
1442.5,-196.889
1442.6,-200.78799999999998
1442.7,-204.65900000000002
1442.8,-208.502
1442.9,-212.31799999999998
1443.0,-216.108
1443.1,-219.87
1443.2,-223.607
1443.3,-227.31799999999998
1443.4,-231.003
1443.5,-234.66299999999998
1443.6,-238.298
1443.7,-241.908
1443.8,-245.49400000000003
1443.9,-249.055
1444.0,-252.593
1444.1,-256.107
1444.2,-259.598
1444.3,-263.066
1444.4,-266.51099999999997
1444.5,-269.933
1444.6,-273.33299999999997
1444.7,-276.711
1444.8,-280.067
1444.9,-283.402
1445.0,-286.715
1445.1,-290.007
1445.2,-293.279
1445.3,-296.529
1445.4,-299.76
1445.5,-302.97
1445.6,-306.16
1445.7,-309.33099999999996
1445.8,-312.482
1445.9,-315.613
1446.0,-318.726
1446.1,-321.819
1446.2,-324.894
1446.3,-327.95099999999996
1446.4,-330.98900000000003
1446.5,-334.009
1446.6,-337.01099999999997
1446.7,-339.996
1446.8,-342.963
1446.9,-345.912
1447.0,-348.845
1447.1,-351.76
1447.2,-354.659
1447.3,-357.541
1447.4,-360.406
1447.5,-363.256
1447.6,-366.089
1447.7,-368.906
1447.8,-371.708
1447.9,-374.494
1448.0,-377.264
1448.1,-380.019
1448.2,-382.759
1448.3,-385.48400000000004
1448.4,-388.194
1448.5,-390.89
1448.6,-393.57099999999997
1448.7,-396.23699999999997
1448.8,-398.89
1448.9,-401.528
1449.0,-404.152
1449.1,-406.76300000000003
1449.2,-409.36
1449.3,-411.94300000000004
1449.4,-414.51300000000003
1449.5,-417.069
1449.6,-419.61300000000006
1449.7,-422.14300000000003
1449.8,-424.661
1449.9,-427.166
1450.0,-429.658
1450.1,-432.13800000000003
1450.2,-434.605
1450.3,-437.06
1450.4,-439.50300000000004
1450.5,-441.934
1450.6,-444.353
1450.7,-446.76
1450.8,-449.156
1450.9,-451.54
1451.0,-453.913
1451.1,-456.274
1451.2,-458.624
1451.3,-460.963
1451.4,-463.291
1451.5,-465.608
1451.6,-467.914
1451.7,-470.21
1451.8,-472.495
1451.9,-474.769
1452.0,-477.033
1452.1,-479.287
1452.2,-481.531
1452.3,-483.764
1452.4,-485.98800000000006
1452.5,-488.20099999999996
1452.6,-490.405
1452.7,-492.599
1452.8,-494.784
1452.9,-496.958
1453.0,-499.124
1453.1,-501.28
1453.2,-503.42699999999996
1453.3,-505.564
1453.4,-507.69300000000004
1453.5,-509.81300000000005
1453.6,-511.923
1453.7,-514.025
1453.8,-516.118
1453.9,-518.202
1454.0,-520.278
1454.1,-522.345
1454.2,-524.404
1454.3,-526.4540000000001
1454.4,-528.496
1454.5,-530.53
1454.6,-532.556
1454.7,-534.573
1454.8,-536.5830000000001
1454.9,-538.585
1455.0,-540.5790000000001
1455.1,-542.565
1455.2,-544.543
1455.3,-546.514
1455.4,-548.477
1455.5,-550.433
1455.6,-552.381
1455.7,-554.322
1455.8,-556.256
1455.9,-558.182
1456.0,-560.102
1456.1,-562.014
1456.2,-563.919
1456.3,-565.817
1456.4,-567.7090000000001
1456.5,-569.5930000000001
1456.6,-571.471
1456.7,-573.342
1456.8,-575.206
1456.9,-577.064
1457.0,-578.915
1457.1,-580.76
1457.2,-582.5980000000001
1457.3,-584.43
1457.4,-586.256
1457.5,-588.075
1457.6,-589.888
1457.7,-591.695
1457.8,-593.496
1457.9,-595.2909999999999
1458.0,-597.08
1458.1,-598.863
1458.2,-600.641
1458.3,-602.4119999999999
1458.4,-604.178
1458.5,-605.938
1458.6,-607.692
1458.7,-609.441
1458.8,-611.184
1458.9,-612.922
1459.0,-614.654
1459.1,-616.381
1459.2,-618.102
1459.3,-619.818
1459.4,-621.529
1459.5,-623.235
1459.6,-624.935
1459.7,-626.631
1459.8,-628.321
1459.9,-630.006
1460.0,-631.686
1460.1,-633.362
1460.2,-635.0319999999999
1460.3,-636.698
1460.4,-638.359
1460.5,-640.015
1460.6,-641.6659999999999
1460.7,-643.313
1460.8,-644.955
1460.9,-646.592
1461.0,-648.225
1461.1,-649.8530000000001
1461.2,-651.477
1461.3,-653.097
1461.4,-654.712
1461.5,-656.323
1461.6,-657.929
1461.7,-659.5310000000001
1461.8,-661.1289999999999
1461.9,-662.7230000000001
1462.0,-664.313
1462.1,-665.898
1462.2,-667.4789999999999
1462.3,-669.057
1462.4,-670.63
1462.5,-672.2
1462.6,-673.765
1462.7,-675.327
1462.8,-676.8839999999999
1462.9,-678.438
1463.0,-679.988
1463.1,-681.535
1463.2,-683.077
1463.3,-684.6160000000001
1463.4,-686.1519999999999
1463.5,-687.683
1463.6,-689.211
1463.7,-690.7360000000001
1463.8,-692.257
1463.9,-693.775
1464.0,-695.289
1464.1,-696.799
1464.2,-698.307
1464.3,-699.811
1464.4,-701.312
1464.5,-702.809
1464.6,-704.303
1464.7,-705.794
1464.8,-707.2819999999999
1464.9,-708.7660000000001
1465.0,-710.248
1465.1,-711.7260000000001
1465.2,-713.201
1465.3,-714.674
1465.4,-716.143
1465.5,-717.6089999999999
1465.6,-719.072
1465.7,-720.533
1465.8,-721.99
1465.9,-723.445
1466.0,-724.8969999999999
1466.1,-726.345
1466.2,-727.7919999999999
1466.3,-729.235
1466.4,-730.676
1466.5,-732.1139999999999
1466.6,-733.549
1466.7,-734.982
1466.8,-736.4119999999999
1466.9,-737.8389999999999
1467.0,-739.2639999999999
1467.1,-740.687
1467.2,-742.107
1467.3,-743.5239999999999
1467.4,-744.939
1467.5,-746.352
1467.6,-747.762
1467.7,-749.169
1467.8,-750.575
1467.9,-751.9780000000001
1468.0,-753.3789999999999
1468.1,-754.7769999999999
1468.2,-756.173
1468.3,-757.567
1468.4,-758.959
1468.5,-760.3489999999999
1468.6,-761.7360000000001
1468.7,-763.1210000000001
1468.8,-764.505
1468.9,-765.8860000000001
1469.0,-767.265
1469.1,-768.6419999999999
1469.2,-770.0169999999999
1469.3,-771.39
1469.4,-772.7610000000001
1469.5,-774.13
1469.6,-775.497
1469.7,-776.863
1469.8,-778.2260000000001
1469.9,-779.5880000000001
1470.0,-780.948
1470.1,-782.306
1470.2,-783.6619999999999
1470.3,-785.0160000000001
1470.4,-786.3689999999999
1470.5,-787.72
1470.6,-789.069
1470.7,-790.4169999999999
1470.8,-791.762
1470.9,-793.107
1471.0,-794.449
1471.1,-795.791
1471.2,-797.13
1471.3,-798.4680000000001
1471.4,-799.804
1471.5,-801.1389999999999
1471.6,-802.4730000000001
1471.7,-803.805
1471.8,-805.135
1471.9,-806.465
1472.0,-807.7919999999999
1472.1,-809.1189999999999
1472.2,-810.444
1472.3,-811.7669999999999
1472.4,-813.09
1472.5,-814.4110000000001
1472.6,-815.73
1472.7,-817.049
1472.8,-818.3660000000001
1472.9,-819.682
1473.0,-820.997
1473.1,-822.311
1473.2,-823.623
1473.3,-824.935
1473.4,-826.245
1473.5,-827.554
1473.6,-828.862
1473.7,-830.169
1473.8,-831.475
1473.9,-832.78
1474.0,-834.084
1474.1,-835.387
1474.2,-836.688
1474.3,-837.9889999999999
1474.4,-839.29
1474.5,-840.5889999999999
1474.6,-841.887
1474.7,-843.184
1474.8,-844.4810000000001
1474.9,-845.7760000000001
1475.0,-847.071
1475.1,-848.365
1475.2,-849.659
1475.3,-850.951
1475.4,-852.243
1475.5,-853.534
1475.6,-854.824
1475.7,-856.1139999999999
1475.8,-857.403
1475.9,-858.691
1476.0,-859.9789999999999
1476.1,-861.2660000000001
1476.2,-862.552
1476.3,-863.8380000000001
1476.4,-865.123
1476.5,-866.408
1476.6,-867.692
1476.7,-868.9760000000001
1476.8,-870.2589999999999
1476.9,-871.5419999999999
1477.0,-872.824
1477.1,-874.1060000000001
1477.2,-875.387
1477.3,-876.668
1477.4,-877.949
1477.5,-879.2289999999999
1477.6,-880.5089999999999
1477.7,-881.788
1477.8,-883.068
1477.9,-884.347
1478.0,-885.625
1478.1,-886.904
1478.2,-888.182
1478.3,-889.46
1478.4,-890.737
1478.5,-892.015
1478.6,-893.2919999999999
1478.7,-894.569
1478.8,-895.846
1478.9,-897.123
1479.0,-898.4
1479.1,-899.676
1479.2,-900.953
1479.3,-902.23
1479.4,-903.5060000000001
1479.5,-904.7819999999999
1479.6,-906.059
1479.7,-907.335
1479.8,-908.612
1479.9,-909.888
1480.0,-911.165
1480.1,-912.442
1480.2,-913.7189999999999
1480.3,-914.9960000000001
1480.4,-916.273
1480.5,-917.55
1480.6,-918.827
1480.7,-920.105
1480.8,-921.383
1480.9,-922.66
1481.0,-923.939
1481.1,-925.217
1481.2,-926.4960000000001
1481.3,-927.775
1481.4,-929.054
1481.5,-930.334
1481.6,-931.6139999999999
1481.7,-932.895
1481.8,-934.175
1481.9,-935.456
1482.0,-936.738
1482.1,-938.02
1482.2,-939.303
1482.3,-940.586
1482.4,-941.8689999999999
1482.5,-943.153
1482.6,-944.437
1482.7,-945.722
1482.8,-947.008
1482.9,-948.294
1483.0,-949.581
1483.1,-950.868
1483.2,-952.1560000000001
1483.3,-953.445
1483.4,-954.7339999999999
1483.5,-956.0239999999999
1483.6,-957.315
1483.7,-958.6060000000001
1483.8,-959.898
1483.9,-961.191
1484.0,-962.485
1484.1,-963.779
1484.2,-965.075
1484.3,-966.3710000000001
1484.4,-967.668
1484.5,-968.966
1484.6,-970.265
1484.7,-971.564
1484.8,-972.865
1484.9,-974.166
1485.0,-975.4689999999999
1485.1,-976.7719999999999
1485.2,-978.077
1485.3,-979.382
1485.4,-980.689
1485.5,-981.997
1485.6,-983.305
1485.7,-984.615
1485.8,-985.926
1485.9,-987.238
1486.0,-988.552
1486.1,-989.8660000000001
1486.2,-991.182
1486.3,-992.4989999999999
1486.4,-993.817
1486.5,-995.1360000000001
1486.6,-996.457
1486.7,-997.779
1486.8,-999.102
1486.9,-1000.427
1487.0,-1001.753
1487.1,-1003.08
1487.2,-1004.409
1487.3,-1005.7389999999999
1487.4,-1007.071
1487.5,-1008.404
1487.6,-1009.7389999999999
1487.7,-1011.075
1487.8,-1012.413
1487.9,-1013.752
1488.0,-1015.0930000000001
1488.1,-1016.436
1488.2,-1017.78
1488.3,-1019.125
1488.4,-1020.4730000000001
1488.5,-1021.822
1488.6,-1023.173
1488.7,-1024.525
1488.8,-1025.88
1488.9,-1027.236
1489.0,-1028.594
1489.1,-1029.954
1489.2,-1031.315
1489.3,-1032.6789999999999
1489.4,-1034.0439999999999
1489.5,-1035.412
1489.6,-1036.781
1489.7,-1038.152
1489.8,-1039.526
1489.9,-1040.901
1490.0,-1042.278
1490.1,-1043.6580000000001
1490.2,-1045.039
1490.3,-1046.423
1490.4,-1047.809
1490.5,-1049.197
1490.6,-1050.587
1490.7,-1051.979
1490.8,-1053.374
1490.9,-1054.771
1491.0,-1056.17
1491.1,-1057.572
1491.2,-1058.976
1491.3,-1060.382
1491.4,-1061.7910000000002
1491.5,-1063.202
1491.6,-1064.616
1491.7,-1066.032
1491.8,-1067.451
1491.9,-1068.872
1492.0,-1070.296
1492.1,-1071.723
1492.2,-1073.152
1492.3,-1074.583
1492.4,-1076.018
1492.5,-1077.455
1492.6,-1078.895
1492.7,-1080.338
1492.8,-1081.7839999999999
1492.9,-1083.232
1493.0,-1084.683
1493.1,-1086.138
1493.2,-1087.595
1493.3,-1089.055
1493.4,-1090.518
1493.5,-1091.985
1493.6,-1093.454
1493.7,-1094.927
1493.8,-1096.402
1493.9,-1097.881
1494.0,-1099.363
1494.1,-1100.848
1494.2,-1102.337
1494.3,-1103.828
1494.4,-1105.3239999999998
1494.5,-1106.822
1494.6,-1108.3239999999998
1494.7,-1109.83
1494.8,-1111.339
1494.9,-1112.851
1495.0,-1114.367
1495.1,-1115.887
1495.2,-1117.41
1495.3,-1118.937
1495.4,-1120.468
1495.5,-1122.002
1495.6,-1123.54
1495.7,-1125.083
1495.8,-1126.629
1495.9,-1128.178
1496.0,-1129.732
1496.1,-1131.29
1496.2,-1132.8519999999999
1496.3,-1134.4180000000001
1496.4,-1135.988
1496.5,-1137.562
1496.6,-1139.141
1496.7,-1140.724
1496.8,-1142.3110000000001
1496.9,-1143.902
1497.0,-1145.498
1497.1,-1147.098
1497.2,-1148.703
1497.3,-1150.312
1497.4,-1151.9260000000002
1497.5,-1153.545
1497.6,-1155.1680000000001
1497.7,-1156.796
1497.8,-1158.428
1497.9,-1160.066
1498.0,-1161.708
1498.1,-1163.355
1498.2,-1165.008
1498.3,-1166.665
1498.4,-1168.327
1498.5,-1169.995
1498.6,-1171.6680000000001
1498.7,-1173.346
1498.8,-1175.029
1498.9,-1176.7169999999999
1499.0,-1178.411
1499.1,-1180.111
1499.2,-1181.816
1499.3,-1183.527
1499.4,-1185.243
1499.5,-1186.965
1499.6,-1188.693
1499.7,-1190.4260000000002
1499.8,-1192.1660000000002
1499.9,-1193.911
1500.0,-1195.663
1500.1,-1197.42
1500.2,-1199.184
1500.3,-1200.954
1500.4,-1202.73
1500.5,-1204.512
1500.6,-1206.3010000000002
1500.7,-1208.097
1500.8,-1209.899
1500.9,-1211.708
1501.0,-1213.5230000000001
1501.1,-1215.345
1501.2,-1217.174
1501.3,-1219.01
1501.4,-1220.853
1501.5,-1222.703
1501.6,-1224.56
1501.7,-1226.424
1501.8,-1228.296
1501.9,-1230.175
1502.0,-1232.062
1502.1,-1233.9560000000001
1502.2,-1235.858
1502.3,-1237.767
1502.4,-1239.685
1502.5,-1241.61
1502.6,-1243.5430000000001
1502.7,-1245.485
1502.8,-1247.434
1502.9,-1249.392
1503.0,-1251.358
1503.1,-1253.333
1503.2,-1255.316
1503.3,-1257.308
1503.4,-1259.309
1503.5,-1261.318
1503.6,-1263.337
1503.7,-1265.364
1503.8,-1267.401
1503.9,-1269.447
1504.0,-1271.502
1504.1,-1273.567
1504.2,-1275.642
1504.3,-1277.726
1504.4,-1279.82
1504.5,-1281.924
1504.6,-1284.039
1504.7,-1286.163
1504.8,-1288.298
1504.9,-1290.443
1505.0,-1292.599
1505.1,-1294.765
1505.2,-1296.942
1505.3,-1299.131
1505.4,-1301.33
1505.5,-1303.54
1505.6,-1305.762
1505.7,-1307.996
1505.8,-1310.241
1505.9,-1312.4979999999998
1506.0,-1314.767
1506.1,-1317.0479999999998
1506.2,-1319.3410000000001
1506.3,-1321.6470000000002
1506.4,-1323.965
1506.5,-1326.296
1506.6,-1328.64
1506.7,-1330.997
1506.8,-1333.368
1506.9,-1335.751
1507.0,-1338.148
1507.1,-1340.559
1507.2,-1342.984
1507.3,-1345.4229999999998
1507.4,-1347.8770000000002
1507.5,-1350.345
1507.6,-1352.8270000000002
1507.7,-1355.3239999999998
1507.8,-1357.8370000000002
1507.9,-1360.365
1508.0,-1362.908
1508.1,-1365.467
1508.2,-1368.0420000000001
1508.3,-1370.6329999999998
1508.4,-1373.24
1508.5,-1375.864
1508.6,-1378.505
1508.7,-1381.1629999999998
1508.8,-1383.838
1508.9,-1386.531
1509.0,-1389.241
1509.1,-1391.97
1509.2,-1394.717
1509.3,-1397.4820000000002
1509.4,-1400.266
1509.5,-1403.07
1509.6,-1405.892
1509.7,-1408.734
1509.8,-1411.5970000000002
1509.9,-1414.479
1510.0,-1417.382
1510.1,-1420.306
1510.2,-1423.251
1510.3,-1426.217
1510.4,-1429.2060000000001
1510.5,-1432.2160000000001
1510.6,-1435.249
1510.7,-1438.305
1510.8,-1441.3829999999998
1510.9,-1444.486
1511.0,-1447.612
1511.1,-1450.7620000000002
1511.2,-1453.9370000000001
1511.3,-1457.1370000000002
1511.4,-1460.3629999999998
1511.5,-1463.614
1511.6,-1466.892
1511.7,-1470.1960000000001
1511.8,-1473.527
1511.9,-1476.886
1512.0,-1480.273
1512.1,-1483.6879999999999
1512.2,-1487.132
1512.3,-1490.605
1512.4,-1494.109
1512.5,-1497.6429999999998
1512.6,-1501.207
1512.7,-1504.8029999999999
1512.8,-1508.431
1512.9,-1512.092
1513.0,-1515.786
1513.1,-1519.513
1513.2,-1523.275
1513.3,-1527.0710000000001
1513.4,-1530.9029999999998
1513.5,-1534.771
1513.6,-1538.675
1513.7,-1542.618
1513.8,-1546.598
1513.9,-1550.6170000000002
1514.0,-1554.675
1514.1,-1558.774
1514.2,-1562.9129999999998
1514.3,-1567.095
1514.4,-1571.319
1514.5,-1575.586
1514.6,-1579.8970000000002
1514.7,-1584.254
1514.8,-1588.656
1514.9,-1593.105
1515.0,-1597.601
1515.1,-1602.1470000000002
1515.2,-1606.7420000000002
1515.3,-1611.3870000000002
1515.4,-1616.0839999999998
1515.5,-1620.8339999999998
1515.6,-1625.6370000000002
1515.7,-1630.495
1515.8,-1635.4089999999999
1515.9,-1640.38
1516.0,-1645.41
1516.1,-1650.499
1516.2,-1655.649
1516.3,-1660.86
1516.4,-1666.136
1516.5,-1671.476
1516.6,-1676.882
1516.7,-1682.356
1516.8,-1687.899
1516.9,-1693.513
1517.0,-1699.2
1517.1,-1704.96
1517.2,-1710.796
1517.3,-1716.7089999999998
1517.4,-1722.7020000000002
1517.5,-1728.775
1517.6,-1734.932
1517.7,-1741.1729999999998
1517.8,-1747.5020000000002
1517.9,-1753.9189999999999
1518.0,-1760.4279999999999
1518.1,-1767.031
1518.2,-1773.729
1518.3,-1780.525
1518.4,-1787.4229999999998
1518.5,-1794.4229999999998
1518.6,-1801.529
1518.7,-1808.744
1518.8,-1816.0710000000001
1518.9,-1823.5120000000002
1519.0,-1831.07
1519.1,-1838.749
1519.2,-1846.5520000000001
1519.3,-1854.483
1519.4,-1862.5439999999999
1519.5,-1870.739
1519.6,-1879.0729999999999
1519.7,-1887.549
1519.8,-1896.171
1519.9,-1904.943
1520.0,-1913.87
1520.1,-1922.957
1520.2,-1932.207
1520.3,-1941.6270000000002
1520.4,-1951.221
1520.5,-1960.994
1520.6,-1970.9520000000002
1520.7,-1981.102
1520.8,-1991.4479999999999
1520.9,-2001.997
1521.0,-2012.757
1521.1,-2023.733
1521.2,-2034.932
1521.3,-2046.3629999999998
1521.4,-2058.034
1521.5,-2069.951
1521.6,-2082.125
1521.7,-2094.563
1521.8,-2107.276
1521.9,-2120.272
1522.0,-2133.563
1522.1,-2147.16
1522.2,-2161.072
1522.3,-2175.314
1522.4,-2189.896
1522.5,-2204.8320000000003
1522.6,-2220.137
1522.7,-2235.824
1522.8,-2251.91
1522.9,-2268.409
1523.0,-2285.34
1523.1,-2302.721
1523.2,-2320.57
1523.3,-2338.908
1523.4,-2357.756
1523.5,-2377.137
1523.6,-2397.074
1523.7,-2417.594
1523.8,-2438.724
1523.9,-2460.491
1524.0,-2482.927
1524.1,-2506.065
1524.2,-2529.939
1524.3,-2554.5860000000002
1524.4,-2580.045
1524.5,-2606.36
1524.6,-2633.575
1524.7,-2661.74
1524.8,-2690.906
1524.9,-2721.1290000000004
1525.0,-2752.4709999999995
1525.1,-2784.995
1525.2,-2818.772
1525.3,-2853.8790000000004
1525.4,-2890.397
1525.5,-2928.4159999999997
1525.6,-2968.031
1525.7,-3009.35
1525.8,-3052.485
1525.9,-3097.563
1526.0,-3144.72
1526.1,-3194.1079999999997
1526.2,-3245.89
1526.3,-3300.2490000000003
1526.4,-3357.386
1526.5,-3417.522
1526.6,-3480.905
1526.7,-3547.808
1526.8,-3618.538
1526.9,-3693.437
1527.0,-3772.89
1527.1,-3857.3309999999997
1527.2,-3947.25
1527.3,-4043.205
1527.4,-4145.83
1527.5,-4255.854
1527.6,-4374.1140000000005
1527.7,-4501.5779999999995
1527.8,-4639.374
1527.9,-4788.821
1528.0,-4951.473
1528.1,-5129.170999999999
1528.2,-5324.118
1528.3,-5538.968000000001
1528.4,-5776.948
1528.5,-6042.024
1528.6,-6339.1230000000005
1528.7,-6674.443
1528.8,-7055.893
1528.9,-7493.725
1529.0,-8001.473000000001
1529.1,-8597.379
1529.2,-9306.634
1529.3,-10165.039
1529.4,-11225.248
1529.5,-12568.0
1529.6,-14323.736
1529.7,-16717.795
1529.8,-20175.896
1529.9,-25610.553
1530.0,-35395.358
1530.1,-58241.194
1530.2,-172800.97699999998
1530.3,169210.15300000002
1530.4,55758.666
1530.5,33001.489
1530.6,23241.106
1530.7,17816.496
1530.8,14363.473999999998
1530.9,11972.332
1531.0,10218.42
1531.1,8876.881
1531.2,7817.518
1531.3,6959.722
1531.4,6250.918000000001
1531.5,5655.354
1531.6,5147.8679999999995
1531.7,4710.24
1531.8,4328.9490000000005
1531.9,3993.7540000000004
1532.0,3696.7529999999997
1532.1,3431.7529999999997
1532.2,3193.8320000000003
1532.3,2979.026
1532.4,2784.11
1532.5,2606.433
1532.6,2443.7929999999997
1532.7,2294.35
1532.8,2156.551
1532.9,2029.078
1533.0,1910.8029999999999
1533.1,1800.76
1533.2,1698.111
1533.3,1602.128
1533.4,1512.1760000000002
1533.5,1427.6989999999998
1533.6,1348.207
1533.7,1273.265
1533.8,1202.49
1533.9,1135.538
1534.0,1072.105
1534.1,1011.914
1534.2,954.721
1534.3,900.303
1534.4,848.46
1534.5,799.0089999999999
1534.6,751.785
1534.7,706.6389999999999
1534.8,663.434
1534.9,622.043
1535.0,582.352
1535.1,544.257
1535.2,507.66
1535.3,472.473
1535.4,438.61199999999997
1535.5,406.00300000000004
1535.6,374.575
1535.7,344.26199999999994
1535.8,315.006
1535.9,286.749
1536.0,259.439
1536.1,233.02700000000002
1536.2,207.46900000000002
1536.3,182.722
1536.4,158.746
1536.5,135.505
1536.6,112.962
1536.7,91.087
1536.8,69.848
1536.9,49.217
1537.0,29.166
1537.1,9.67
1537.2,-9.295
1537.3,-27.752
1537.4,-45.721000000000004
1537.5,-63.224
1537.6,-80.279
1537.7,-96.905
1537.8,-113.118
1537.9,-128.935
1538.0,-144.371
1538.1,-159.44
1538.2,-174.158
1538.3,-188.53599999999997
1538.4,-202.58700000000002
1538.5,-216.324
1538.6,-229.757
1538.7,-242.89700000000002
1538.8,-255.75599999999997
1538.9,-268.342
1539.0,-280.664
1539.1,-292.733
1539.2,-304.556
1539.3,-316.142
1539.4,-327.498
1539.5,-338.63199999999995
1539.6,-349.55199999999996
1539.7,-360.26300000000003
1539.8,-370.773
1539.9,-381.088
1540.0,-391.213
1540.1,-401.155
1540.2,-410.92
1540.3,-420.51199999999994
1540.4,-429.93699999999995
1540.5,-439.2
1540.6,-448.305
1540.7,-457.25699999999995
1540.8,-466.06
1540.9,-474.719
1541.0,-483.23800000000006
1541.1,-491.62
1541.2,-499.87
1541.3,-507.991
1541.4,-515.986
1541.5,-523.859
1541.6,-531.613
1541.7,-539.252
1541.8,-546.778
1541.9,-554.194
1542.0,-561.504
1542.1,-568.7090000000001
1542.2,-575.813
1542.3,-582.818
1542.4,-589.726
1542.5,-596.5409999999999
1542.6,-603.263
1542.7,-609.8969999999999
1542.8,-616.443
1542.9,-622.903
1543.0,-629.281
1543.1,-635.578
1543.2,-641.795
1543.3,-647.935
1543.4,-653.999
1543.5,-659.9889999999999
1543.6,-665.908
1543.7,-671.755
1543.8,-677.534
1543.9,-683.2460000000001
1544.0,-688.8910000000001
1544.1,-694.4730000000001
1544.2,-699.9910000000001
1544.3,-705.447
1544.4,-710.8439999999999
1544.5,-716.181
1544.6,-721.461
1544.7,-726.684
1544.8,-731.852
1544.9,-736.966
1545.0,-742.0269999999999
1545.1,-747.0360000000001
1545.2,-751.995
1545.3,-756.903
1545.4,-761.763
1545.5,-766.575
1545.6,-771.34
1545.7,-776.06
1545.8,-780.735
1545.9,-785.365
1546.0,-789.953
1546.1,-794.498
1546.2,-799.002
1546.3,-803.465
1546.4,-807.888
1546.5,-812.2719999999999
1546.6,-816.618
1546.7,-820.926
1546.8,-825.197
1546.9,-829.432
1547.0,-833.632
1547.1,-837.796
1547.2,-841.927
1547.3,-846.0239999999999
1547.4,-850.087
1547.5,-854.1189999999999
1547.6,-858.1189999999999
1547.7,-862.087
1547.8,-866.025
1547.9,-869.933
1548.0,-873.811
1548.1,-877.6610000000001
1548.2,-881.482
1548.3,-885.275
1548.4,-889.04
1548.5,-892.778
1548.6,-896.49
1548.7,-900.176
1548.8,-903.836
1548.9,-907.471
1549.0,-911.082
1549.1,-914.668
1549.2,-918.23
1549.3,-921.768
1549.4,-925.284
1549.5,-928.7769999999999
1549.6,-932.247
1549.7,-935.696
1549.8,-939.123
1549.9,-942.528
1550.0,-945.913
1550.1,-949.278
1550.2,-952.622
1550.3,-955.946
1550.4,-959.2510000000001
1550.5,-962.5369999999999
1550.6,-965.803
1550.7,-969.052
1550.8,-972.2819999999999
1550.9,-975.4939999999999
1551.0,-978.688
1551.1,-981.865
1551.2,-985.0239999999999
1551.3,-988.1669999999999
1551.4,-991.294
1551.5,-994.404
1551.6,-997.498
1551.7,-1000.576
1551.8,-1003.638
1551.9,-1006.686
1552.0,-1009.7180000000001
1552.1,-1012.7360000000001
1552.2,-1015.738
1552.3,-1018.727
1552.4,-1021.701
1552.5,-1024.662
1552.6,-1027.608
1552.7,-1030.542
1552.8,-1033.462
1552.9,-1036.369
1553.0,-1039.263
1553.1,-1042.144
1553.2,-1045.013
1553.3,-1047.87
1553.4,-1050.714
1553.5,-1053.547
1553.6,-1056.368
1553.7,-1059.177
1553.8,-1061.975
1553.9,-1064.762
1554.0,-1067.538
1554.1,-1070.303
1554.2,-1073.057
1554.3,-1075.8010000000002
1554.4,-1078.535
1554.5,-1081.258
1554.6,-1083.971
1554.7,-1086.674
1554.8,-1089.368
1554.9,-1092.052
1555.0,-1094.7269999999999
1555.1,-1097.392
1555.2,-1100.048
1555.3,-1102.695
1555.4,-1105.3339999999998
1555.5,-1107.963
1555.6,-1110.5839999999998
1555.7,-1113.1960000000001
1555.8,-1115.8
1555.9,-1118.396
1556.0,-1120.984
1556.1,-1123.5639999999999
1556.2,-1126.136
1556.3,-1128.7
1556.4,-1131.257
1556.5,-1133.806
1556.6,-1136.348
1556.7,-1138.883
1556.8,-1141.41
1556.9,-1143.93
1557.0,-1146.444
1557.1,-1148.951
1557.2,-1151.451
1557.3,-1153.944
1557.4,-1156.431
1557.5,-1158.911
1557.6,-1161.385
1557.7,-1163.853
1557.8,-1166.315
1557.9,-1168.771
1558.0,-1171.221
1558.1,-1173.665
1558.2,-1176.104
1558.3,-1178.537
1558.4,-1180.964
1558.5,-1183.386
1558.6,-1185.802
1558.7,-1188.214
1558.8,-1190.62
1558.9,-1193.021
1559.0,-1195.417
1559.1,-1197.808
1559.2,-1200.194
1559.3,-1202.575
1559.4,-1204.952
1559.5,-1207.3239999999998
1559.6,-1209.692
1559.7,-1212.055
1559.8,-1214.414
1559.9,-1216.768
1560.0,-1219.119
1560.1,-1221.465
1560.2,-1223.807
1560.3,-1226.145
1560.4,-1228.479
1560.5,-1230.809
1560.6,-1233.136
1560.7,-1235.4589999999998
1560.8,-1237.778
1560.9,-1240.093
1561.0,-1242.405
1561.1,-1244.714
1561.2,-1247.019
1561.3,-1249.3210000000001
1561.4,-1251.619
1561.5,-1253.915
1561.6,-1256.2069999999999
1561.7,-1258.496
1561.8,-1260.782
1561.9,-1263.066
1562.0,-1265.346
1562.1,-1267.624
1562.2,-1269.8980000000001
1562.3,-1272.17
1562.4,-1274.44
1562.5,-1276.7060000000001
1562.6,-1278.971
1562.7,-1281.233
1562.8,-1283.492
1562.9,-1285.749
1563.0,-1288.003
1563.1,-1290.256
1563.2,-1292.506
1563.3,-1294.754
1563.4,-1297.0
1563.5,-1299.244
1563.6,-1301.486
1563.7,-1303.725
1563.8,-1305.963
1563.9,-1308.2
1564.0,-1310.434
1564.1,-1312.6660000000002
1564.2,-1314.8970000000002
1564.3,-1317.126
1564.4,-1319.354
1564.5,-1321.58
1564.6,-1323.805
1564.7,-1326.0279999999998
1564.8,-1328.249
1564.9,-1330.47
1565.0,-1332.6889999999999
1565.1,-1334.906
1565.2,-1337.1229999999998
1565.3,-1339.338
1565.4,-1341.5520000000001
1565.5,-1343.765
1565.6,-1345.977
1565.7,-1348.1879999999999
1565.8,-1350.3970000000002
1565.9,-1352.606
1566.0,-1354.815
1566.1,-1357.0220000000002
1566.2,-1359.2279999999998
1566.3,-1361.434
1566.4,-1363.639
1566.5,-1365.8429999999998
1566.6,-1368.046
1566.7,-1370.249
1566.8,-1372.4520000000002
1566.9,-1374.654
1567.0,-1376.855
1567.1,-1379.056
1567.2,-1381.257
1567.3,-1383.457
1567.4,-1385.6570000000002
1567.5,-1387.856
1567.6,-1390.055
1567.7,-1392.254
1567.8,-1394.453
1567.9,-1396.652
1568.0,-1398.851
1568.1,-1401.049
1568.2,-1403.2479999999998
1568.3,-1405.4460000000001
1568.4,-1407.645
1568.5,-1409.8429999999998
1568.6,-1412.0420000000001
1568.7,-1414.241
1568.8,-1416.44
1568.9,-1418.639
1569.0,-1420.839
1569.1,-1423.0379999999998
1569.2,-1425.2379999999998
1569.3,-1427.4389999999999
1569.4,-1429.64
1569.5,-1431.8410000000001
1569.6,-1434.043
1569.7,-1436.245
1569.8,-1438.4470000000001
1569.9,-1440.651
1570.0,-1442.855
1570.1,-1445.059
1570.2,-1447.264
1570.3,-1449.47
1570.4,-1451.6760000000002
1570.5,-1453.884
1570.6,-1456.092
1570.7,-1458.3
1570.8,-1460.51
1570.9,-1462.721
1571.0,-1464.932
1571.1,-1467.145
1571.2,-1469.358
1571.3,-1471.5720000000001
1571.4,-1473.7879999999998
1571.5,-1476.004
1571.6,-1478.2220000000002
1571.7,-1480.441
1571.8,-1482.66
1571.9,-1484.881
1572.0,-1487.104
1572.1,-1489.3270000000002
1572.2,-1491.5520000000001
1572.3,-1493.7779999999998
1572.4,-1496.006
1572.5,-1498.234
1572.6,-1500.465
1572.7,-1502.6960000000001
1572.8,-1504.9289999999999
1572.9,-1507.164
1573.0,-1509.4
1573.1,-1511.638
1573.2,-1513.8770000000002
1573.3,-1516.118
1573.4,-1518.36
1573.5,-1520.604
1573.6,-1522.85
1573.7,-1525.098
1573.8,-1527.3470000000002
1573.9,-1529.598
1574.0,-1531.851
1574.1,-1534.106
1574.2,-1536.3629999999998
1574.3,-1538.621
1574.4,-1540.881
1574.5,-1543.144
1574.6,-1545.408
1574.7,-1547.675
1574.8,-1549.943
1574.9,-1552.214
1575.0,-1554.486
1575.1,-1556.761
1575.2,-1559.0379999999998
1575.3,-1561.317
1575.4,-1563.598
1575.5,-1565.882
1575.6,-1568.1670000000001
1575.7,-1570.4560000000001
1575.8,-1572.746
1575.9,-1575.039
1576.0,-1577.3339999999998
1576.1,-1579.631
1576.2,-1581.931
1576.3,-1584.234
1576.4,-1586.539
1576.5,-1588.846
1576.6,-1591.156
1576.7,-1593.469
1576.8,-1595.7839999999999
1576.9,-1598.102
1577.0,-1600.422
1577.1,-1602.746
1577.2,-1605.0710000000001
1577.3,-1607.4
1577.4,-1609.7320000000002
1577.5,-1612.066
1577.6,-1614.4029999999998
1577.7,-1616.743
1577.8,-1619.085
1577.9,-1621.431
1578.0,-1623.78
1578.1,-1626.131
1578.2,-1628.486
1578.3,-1630.844
1578.4,-1633.204
1578.5,-1635.568
1578.6,-1637.935
1578.7,-1640.305
1578.8,-1642.6779999999999
1578.9,-1645.055
1579.0,-1647.434
1579.1,-1649.817
1579.2,-1652.203
1579.3,-1654.5929999999998
1579.4,-1656.986
1579.5,-1659.382
1579.6,-1661.781
1579.7,-1664.184
1579.8,-1666.5910000000001
1579.9,-1669.001
1580.0,-1671.414
1580.1,-1673.8310000000001
1580.2,-1676.251
1580.3,-1678.6760000000002
1580.4,-1681.1029999999998
1580.5,-1683.535
1580.6,-1685.97
1580.7,-1688.4089999999999
1580.8,-1690.851
1580.9,-1693.297
1581.0,-1695.747
1581.1,-1698.201
1581.2,-1700.6589999999999
1581.3,-1703.121
1581.4,-1705.586
1581.5,-1708.056
1581.6,-1710.529
1581.7,-1713.006
1581.8,-1715.4879999999998
1581.9,-1717.973
1582.0,-1720.463
1582.1,-1722.957
1582.2,-1725.455
1582.3,-1727.957
1582.4,-1730.463
1582.5,-1732.974
1582.6,-1735.4879999999998
1582.7,-1738.007
1582.8,-1740.531
1582.9,-1743.059
1583.0,-1745.5910000000001
1583.1,-1748.1270000000002
1583.2,-1750.668
1583.3,-1753.214
1583.4,-1755.764
1583.5,-1758.318
1583.6,-1760.8770000000002
1583.7,-1763.441
1583.8,-1766.009
1583.9,-1768.582
1584.0,-1771.16
1584.1,-1773.743
1584.2,-1776.33
1584.3,-1778.922
1584.4,-1781.519
1584.5,-1784.12
1584.6,-1786.727
1584.7,-1789.338
1584.8,-1791.955
1584.9,-1794.576
1585.0,-1797.2020000000002
1585.1,-1799.8339999999998
1585.2,-1802.47
1585.3,-1805.112
1585.4,-1807.759
1585.5,-1810.411
1585.6,-1813.068
1585.7,-1815.73
1585.8,-1818.398
1585.9,-1821.0710000000001
1586.0,-1823.749
1586.1,-1826.433
1586.2,-1829.122
1586.3,-1831.817
1586.4,-1834.517
1586.5,-1837.2220000000002
1586.6,-1839.933
1586.7,-1842.65
1586.8,-1845.372
1586.9,-1848.1
1587.0,-1850.8339999999998
1587.1,-1853.5729999999999
1587.2,-1856.318
1587.3,-1859.069
1587.4,-1861.826
1587.5,-1864.588
1587.6,-1867.3570000000002
1587.7,-1870.131
1587.8,-1872.912
1587.9,-1875.6979999999999
1588.0,-1878.49
1588.1,-1881.289
1588.2,-1884.0929999999998
1588.3,-1886.904
1588.4,-1889.721
1588.5,-1892.5439999999999
1588.6,-1895.3729999999998
1588.7,-1898.2089999999998
1588.8,-1901.0510000000002
1588.9,-1903.9
1589.0,-1906.754
1589.1,-1909.616
1589.2,-1912.483
1589.3,-1915.358
1589.4,-1918.2379999999998
1589.5,-1921.126
1589.6,-1924.02
1589.7,-1926.921
1589.8,-1929.828
1589.9,-1932.7420000000002
1590.0,-1935.6629999999998
1590.1,-1938.5910000000001
1590.2,-1941.526
1590.3,-1944.467
1590.4,-1947.4160000000002
1590.5,-1950.372
1590.6,-1953.3339999999998
1590.7,-1956.3039999999999
1590.8,-1959.281
1590.9,-1962.265
1591.0,-1965.256
1591.1,-1968.254
1591.2,-1971.26
1591.3,-1974.273
1591.4,-1977.2939999999999
1591.5,-1980.3220000000001
1591.6,-1983.3570000000002
1591.7,-1986.4
1591.8,-1989.45
1591.9,-1992.5079999999998
1592.0,-1995.5739999999998
1592.1,-1998.6470000000002
1592.2,-2001.7279999999998
1592.3,-2004.817
1592.4,-2007.9129999999998
1592.5,-2011.0179999999998
1592.6,-2014.13
1592.7,-2017.251
1592.8,-2020.379
1592.9,-2023.515
1593.0,-2026.66
1593.1,-2029.8120000000001
1593.2,-2032.973
1593.3,-2036.142
1593.4,-2039.319
1593.5,-2042.505
1593.6,-2045.6989999999998
1593.7,-2048.901
1593.8,-2052.112
1593.9,-2055.331
1594.0,-2058.5589999999997
1594.1,-2061.7960000000003
1594.2,-2065.041
1594.3,-2068.295
1594.4,-2071.558
1594.5,-2074.8289999999997
1594.6,-2078.11
1594.7,-2081.399
1594.8,-2084.697
1594.9,-2088.005
1595.0,-2091.321
1595.1,-2094.646
1595.2,-2097.981
1595.3,-2101.325
1595.4,-2104.678
1595.5,-2108.041
1595.6,-2111.413
1595.7,-2114.794
1595.8,-2118.185
1595.9,-2121.5860000000002
1596.0,-2124.996
1596.1,-2128.416
1596.2,-2131.845
1596.3,-2135.284
1596.4,-2138.7329999999997
1596.5,-2142.192
1596.6,-2145.661
1596.7,-2149.14
1596.8,-2152.629
1596.9,-2156.129
1597.0,-2159.638
1597.1,-2163.158
1597.2,-2166.688
1597.3,-2170.228
1597.4,-2173.779
1597.5,-2177.34
1597.6,-2180.9120000000003
1597.7,-2184.494
1597.8,-2188.087
1597.9,-2191.6910000000003
1598.0,-2195.305
1598.1,-2198.931
1598.2,-2202.567
1598.3,-2206.215
1598.4,-2209.873
1598.5,-2213.5429999999997
1598.6,-2217.224
1598.7,-2220.916
1598.8,-2224.619
1598.9,-2228.334
1599.0,-2232.06
1599.1,-2235.798
1599.2,-2239.547
1599.3,-2243.308
1599.4,-2247.081
1599.5,-2250.865
1599.6,-2254.661
1599.7,-2258.47
1599.8,-2262.29
1599.9,-2266.123
1600.0,-2269.967
1600.1,-2273.824
1600.2,-2277.6929999999998
1600.3,-2281.575
1600.4,-2285.468
1600.5,-2289.375
1600.6,-2293.294
1600.7,-2297.226
1600.8,-2301.17
1600.9,-2305.127
1601.0,-2309.098
1601.1,-2313.081
1601.2,-2317.077
1601.3,-2321.087
1601.4,-2325.109
1601.5,-2329.145
1601.6,-2333.194
1601.7,-2337.257
1601.8,-2341.334
1601.9,-2345.424
1602.0,-2349.527
1602.1,-2353.645
1602.2,-2357.776
1602.3,-2361.9210000000003
1602.4,-2366.081
1602.5,-2370.254
1602.6,-2374.442
1602.7,-2378.644
1602.8,-2382.861
1602.9,-2387.092
1603.0,-2391.337
1603.1,-2395.597
1603.2,-2399.8720000000003
1603.3,-2404.1620000000003
1603.4,-2408.467
1603.5,-2412.7870000000003
1603.6,-2417.1220000000003
1603.7,-2421.472
1603.8,-2425.837
1603.9,-2430.218
1604.0,-2434.615
1604.1,-2439.027
1604.2,-2443.455
1604.3,-2447.8979999999997
1604.4,-2452.3579999999997
1604.5,-2456.833
1604.6,-2461.325
1604.7,-2465.833
1604.8,-2470.357
1604.9,-2474.897
1605.0,-2479.455
1605.1,-2484.028
1605.2,-2488.619
1605.3,-2493.226
1605.4,-2497.85
1605.5,-2502.492
1605.6,-2507.15
1605.7,-2511.826
1605.8,-2516.519
1605.9,-2521.23
1606.0,-2525.959
1606.1,-2530.705
1606.2,-2535.469
1606.3,-2540.251
1606.4,-2545.051
1606.5,-2549.869
1606.6,-2554.705
1606.7,-2559.56
1606.8,-2564.4339999999997
1606.9,-2569.326
1607.0,-2574.237
1607.1,-2579.167
1607.2,-2584.116
1607.3,-2589.084
1607.4,-2594.072
1607.5,-2599.0789999999997
1607.6,-2604.105
1607.7,-2609.152
1607.8,-2614.218
1607.9,-2619.304
1608.0,-2624.41
1608.1,-2629.5359999999996
1608.2,-2634.683
1608.3,-2639.8509999999997
1608.4,-2645.038
1608.5,-2650.2470000000003
1608.6,-2655.4770000000003
1608.7,-2660.728
1608.8,-2666.0
1608.9,-2671.2929999999997
1609.0,-2676.6079999999997
1609.1,-2681.9440000000004
1609.2,-2687.302
1609.3,-2692.683
1609.4,-2698.085
1609.5,-2703.51
1609.6,-2708.9570000000003
1609.7,-2714.426
1609.8,-2719.9179999999997
1609.9,-2725.434
1610.0,-2730.972
1610.1,-2736.533
1610.2,-2742.118
1610.3,-2747.7259999999997
1610.4,-2753.3579999999997
1610.5,-2759.014
1610.6,-2764.6940000000004
1610.7,-2770.3979999999997
1610.8,-2776.1259999999997
1610.9,-2781.8790000000004
1611.0,-2787.657
1611.1,-2793.46
1611.2,-2799.2870000000003
1611.3,-2805.14
1611.4,-2811.0190000000002
1611.5,-2816.922
1611.6,-2822.8520000000003
1611.7,-2828.808
1611.8,-2834.79
1611.9,-2840.798
1612.0,-2846.833
1612.1,-2852.895
1612.2,-2858.9829999999997
1612.3,-2865.099
1612.4,-2871.242
1612.5,-2877.4120000000003
1612.6,-2883.611
1612.7,-2889.837
1612.8,-2896.091
1612.9,-2902.3740000000003
1613.0,-2908.685
1613.1,-2915.025
1613.2,-2921.3940000000002
1613.3,-2927.7929999999997
1613.4,-2934.2209999999995
1613.5,-2940.678
1613.6,-2947.165
1613.7,-2953.683
1613.8,-2960.23
1613.9,-2966.809
1614.0,-2973.4179999999997
1614.1,-2980.058
1614.2,-2986.7290000000003
1614.3,-2993.4320000000002
1614.4,-3000.167
1614.5,-3006.934
1614.6,-3013.7329999999997
1614.7,-3020.5640000000003
1614.8,-3027.428
1614.9,-3034.325
1615.0,-3041.256
1615.1,-3048.22
1615.2,-3055.217
1615.3,-3062.2490000000003
1615.4,-3069.315
1615.5,-3076.4159999999997
1615.6,-3083.551
1615.7,-3090.722
1615.8,-3097.928
1615.9,-3105.1690000000003
1616.0,-3112.447
1616.1,-3119.761
1616.2,-3127.111
1616.3,-3134.4990000000003
1616.4,-3141.923
1616.5,-3149.385
1616.6,-3156.884
1616.7,-3164.422
1616.8,-3171.998
1616.9,-3179.613
1617.0,-3187.2670000000003
1617.1,-3194.96
1617.2,-3202.692
1617.3,-3210.465
1617.4,-3218.278
1617.5,-3226.131
1617.6,-3234.026
1617.7,-3241.961
1617.8,-3249.9390000000003
1617.9,-3257.958
1618.0,-3266.02
1618.1,-3274.1240000000003
1618.2,-3282.272
1618.3,-3290.4629999999997
1618.4,-3298.698
1618.5,-3306.9759999999997
1618.6,-3315.3
1618.7,-3323.6679999999997
1618.8,-3332.0820000000003
1618.9,-3340.5409999999997
1619.0,-3349.047
1619.1,-3357.599
1619.2,-3366.198
1619.3,-3374.844
1619.4,-3383.538
1619.5,-3392.28
1619.6,-3401.071
1619.7,-3409.91
1619.8,-3418.7990000000004
1619.9,-3427.738
1620.0,-3436.728
1620.1,-3445.768
1620.2,-3454.8590000000004
1620.3,-3464.0009999999997
1620.4,-3473.196
1620.5,-3482.4440000000004
1620.6,-3491.745
1620.7,-3501.099
1620.8,-3510.507
1620.9,-3519.97
1621.0,-3529.487
1621.1,-3539.0609999999997
1621.2,-3548.69
1621.3,-3558.3759999999997
1621.4,-3568.119
1621.5,-3577.9190000000003
1621.6,-3587.778
1621.7,-3597.696
1621.8,-3607.672
1621.9,-3617.7090000000003
1622.0,-3627.805
1622.1,-3637.9629999999997
1622.2,-3648.1820000000002
1622.3,-3658.4640000000004
1622.4,-3668.808
1622.5,-3679.215
1622.6,-3689.6859999999997
1622.7,-3700.222
1622.8,-3710.822
1622.9,-3721.489
1623.0,-3732.222
1623.1,-3743.022
1623.2,-3753.889
1623.3,-3764.825
1623.4,-3775.83
1623.5,-3786.905
1623.6,-3798.05
1623.7,-3809.2659999999996
1623.8,-3820.554
1623.9,-3831.915
1624.0,-3843.349
1624.1,-3854.857
1624.2,-3866.4390000000003
1624.3,-3878.097
1624.4,-3889.8309999999997
1624.5,-3901.643
1624.6,-3913.532
1624.7,-3925.5
1624.8,-3937.547
1624.9,-3949.6740000000004
1625.0,-3961.883
1625.1,-3974.173
1625.2,-3986.547
1625.3,-3999.0040000000004
1625.4,-4011.545
1625.5,-4024.172
1625.6,-4036.885
1625.7,-4049.6859999999997
1625.8,-4062.574
1625.9,-4075.552
1626.0,-4088.62
1626.1,-4101.779
1626.2,-4115.03
1626.3,-4128.374
1626.4,-4141.812
1626.5,-4155.345
1626.6,-4168.974
1626.7,-4182.701
1626.8,-4196.525
1626.9,-4210.4490000000005
1627.0,-4224.473
1627.1,-4238.599
1627.2,-4252.8279999999995
1627.3,-4267.161
1627.4,-4281.598
1627.5,-4296.142
1627.6,-4310.793
1627.7,-4325.553
1627.8,-4340.423
1627.9,-4355.404
1628.0,-4370.497
1628.1,-4385.704000000001
1628.2,-4401.026
1628.3,-4416.465
1628.4,-4432.022
1628.5,-4447.697
1628.6,-4463.4929999999995
1628.7,-4479.412
1628.8,-4495.4529999999995
1628.9,-4511.62
1629.0,-4527.913
1629.1,-4544.334
1629.2,-4560.885
1629.3,-4577.566
1629.4,-4594.380999999999
1629.5,-4611.329000000001
1629.6,-4628.414000000001
1629.7,-4645.637
1629.8,-4662.998
1629.9,-4680.501
1630.0,-4698.147
1630.1,-4715.937
1630.2,-4733.874
1630.3,-4751.959
1630.4,-4770.195
1630.5,-4788.582
1630.6,-4807.124
1630.7,-4825.822
1630.8,-4844.677
1630.9,-4863.693
1631.0,-4882.872
1631.1,-4902.214
1631.2,-4921.723
1631.3,-4941.401
1631.4,-4961.25
1631.5,-4981.272
1631.6,-5001.47
1631.7,-5021.846
1631.8,-5042.402
1631.9,-5063.141
1632.0,-5084.065
1632.1,-5105.177
1632.2,-5126.479
1632.3,-5147.974
1632.4,-5169.665
1632.5,-5191.555
1632.6,-5213.646
1632.7,-5235.941
1632.8,-5258.443
1632.9,-5281.154
1633.0,-5304.079000000001
1633.1,-5327.22
1633.2,-5350.579000000001
1633.3,-5374.161
1633.4,-5397.969
1633.5,-5422.005
1633.6,-5446.273
1633.7,-5470.776999999999
1633.8,-5495.52
1633.9,-5520.505999999999
1634.0,-5545.738
1634.1,-5571.22
1634.2,-5596.956
1634.3,-5622.9490000000005
1634.4,-5649.204000000001
1634.5,-5675.725
1634.6,-5702.515
1634.7,-5729.579000000001
1634.8,-5756.922
1634.9,-5784.547
1635.0,-5812.459
1635.1,-5840.6630000000005
1635.2,-5869.161999999999
1635.3,-5897.963000000001
1635.4,-5927.07
1635.5,-5956.486999999999
1635.6,-5986.221
1635.7,-6016.275
1635.8,-6046.656
1635.9,-6077.368
1636.0,-6108.4169999999995
1636.1,-6139.81
1636.2,-6171.5509999999995
1636.3,-6203.647
1636.4,-6236.103
1636.5,-6268.9259999999995
1636.6,-6302.1230000000005
1636.7,-6335.6990000000005
1636.8,-6369.661
1636.9,-6404.016
1637.0,-6438.771
1637.1,-6473.933000000001
1637.2,-6509.509
1637.3,-6545.507
1637.4,-6581.934
1637.5,-6618.798000000001
1637.6,-6656.108
1637.7,-6693.871
1637.8,-6732.095
1637.9,-6770.79
1638.0,-6809.964
1638.1,-6849.626
1638.2,-6889.785
1638.3,-6930.451
1638.4,-6971.634
1638.5,-7013.344
1638.6,-7055.59
1638.7,-7098.384
1638.8,-7141.735
1638.9,-7185.656999999999
1639.0,-7230.158
1639.1,-7275.2519999999995
1639.2,-7320.951
1639.3,-7367.266
1639.4,-7414.21
1639.5,-7461.797
1639.6,-7510.039000000001
1639.7,-7558.951
1639.8,-7608.545999999999
1639.9,-7658.839
1640.0,-7709.846
1640.1,-7761.58
1640.2,-7814.059
1640.3,-7867.299
1640.4,-7921.315
1640.5,-7976.126
1640.6,-8031.75
1640.7,-8088.204000000001
1640.8,-8145.507
1640.9,-8203.679
1641.0,-8262.74
1641.1,-8322.711
1641.2,-8383.613000000001
1641.3,-8445.466999999999
1641.4,-8508.296999999999
1641.5,-8572.125
1641.6,-8636.976999999999
1641.7,-8702.876
1641.8,-8769.849
1641.9,-8837.921999999999
1642.0,-8907.123
1642.1,-8977.48
1642.2,-9049.023000000001
1642.3,-9121.780999999999
1642.4,-9195.787
1642.5,-9271.072
1642.6,-9347.67
1642.7,-9425.617
1642.8,-9504.948
1642.9,-9585.7
1643.0,-9667.913
1643.1,-9751.626
1643.2,-9836.881
1643.3,-9923.721
1643.4,-10012.190999999999
1643.5,-10102.338
1643.6,-10194.21
1643.7,-10287.857
1643.8,-10383.33
1643.9,-10480.685
1644.0,-10579.978000000001
1644.1,-10681.267
1644.2,-10784.613000000001
1644.3,-10890.08
1644.4,-10997.733999999999
1644.5,-11107.643999999998
1644.6,-11219.882
1644.7,-11334.523000000001
1644.8,-11451.643999999998
1644.9,-11571.328000000001
1645.0,-11693.66
1645.1,-11818.73
1645.2,-11946.628999999999
1645.3,-12077.456
1645.4,-12211.312
1645.5,-12348.305
1645.6,-12488.546
1645.7,-12632.152
1645.8,-12779.246000000001
1645.9,-12929.957
1646.0,-13084.421
1646.1,-13242.778999999999
1646.2,-13405.181999999999
1646.3,-13571.786
1646.4,-13742.757
1646.5,-13918.268999999998
1646.6,-14098.506000000001
1646.7,-14283.662
1646.8,-14473.941
1646.9,-14669.56
1647.0,-14870.745
1647.1,-15077.74
1647.2,-15290.8
1647.3,-15510.196000000002
1647.4,-15736.214
1647.5,-15969.161
1647.6,-16209.358999999999
1647.7,-16457.154
1647.8,-16712.911
1647.9,-16977.023
1648.0,-17249.905
1648.1,-17532.001
1648.2,-17823.788
1648.3,-18125.773999999998
1648.4,-18438.504
1648.5,-18762.563000000002
1648.6,-19098.577
1648.7,-19447.221
1648.8,-19809.223
1648.9,-20185.363999999998
1649.0,-20576.492
1649.1,-20983.521
1649.2,-21407.441000000003
1649.3,-21849.327
1649.4,-22310.346
1649.5,-22791.77
1649.6,-23294.985
1649.7,-23821.506
1649.8,-24372.991
1649.9,-24951.26
1650.0,-25558.315
1650.1,-26196.359
1650.2,-26867.831000000002
1650.3,-27575.429
1650.4,-28322.15
1650.5,-29111.332000000002
1650.6,-29946.707000000002
1650.7,-30832.451
1650.8,-31773.266
1650.9,-32774.454
1651.0,-33842.019
1651.1,-34982.794
1651.2,-36204.576
1651.3,-37516.317
1651.4,-38928.332
1651.5,-40452.581
1651.6,-42103.002
1651.7,-43895.94
1651.8,-45850.693
1651.9,-47990.205
1652.0,-50341.975999999995
1652.1,-52939.247
1652.2,-55822.581
1652.3,-59041.999
1652.4,-62659.905999999995
1652.5,-66755.178
1652.6,-71428.976
1652.7,-76813.218
1652.8,-83083.228
1652.9,-90477.189
1653.0,-99327.09
1653.1,-110109.95
1653.2,-123536.71699999999
1653.3,-140715.712
1653.4,-163475.35199999998
1653.5,-195062.384
1653.6,-241848.042
1653.7,-318277.297
1653.8,-465588.195
1653.9,-867646.485
1654.0,-6407076.962
1654.1,1188240.618
1654.2,543350.0179999999
1654.3,352052.145
1654.4,260298.27899999998
1654.5,206431.885
1654.6,171001.802
1654.7,145926.036
1654.8,127244.234
1654.9,112787.352
1655.0,101267.758
1655.1,91872.811
1655.2,84064.33
1655.3,77471.745
1655.4,71831.562
1655.5,66951.29
1655.6,62687.04
1655.7,58929.09099999999
1655.8,55592.32
1655.9,52609.672
1656.0,49927.61
1656.1,47502.87
1656.2,45300.113
1656.3,43290.184
1656.4,41448.823
1656.5,39755.674
1656.6,38193.531
1656.7,36747.755
1656.8,35405.806000000004
1656.9,34156.885
1657.0,32991.642
1657.1,31901.938
1657.2,30880.654
1657.3,29921.542999999998
1657.4,29019.092999999997
1657.5,28168.424
1657.6,27365.205
1657.7,26605.569
1657.8,25886.064
1657.9,25203.589
1658.0,24555.356
1658.1,23938.85
1658.2,23351.796000000002
1658.3,22792.132
1658.4,22257.985
1658.5,21747.646
1658.6,21259.557
1658.7,20792.295
1658.8,20344.552
1658.9,19915.131
1659.0,19502.927
1659.1,19106.927
1659.2,18726.19
1659.3,18359.852
1659.4,18007.11
1659.5,17667.22
1659.6,17339.492
1659.7,17023.284
1659.8,16717.998
1659.9,16423.078
1660.0,16138.003
1660.1,15862.29
1660.2,15595.482
1660.3,15337.156
1660.4,15086.913
1660.5,14844.378
1660.6,14609.201000000001
1660.7,14381.051000000001
1660.8,14159.618
1660.9,13944.608
1661.0,13735.747
1661.1,13532.773000000001
1661.2,13335.441
1661.3,13143.518999999998
1661.4,12956.786
1661.5,12775.034
1661.6,12598.067
1661.7,12425.698
1661.8,12257.75
1661.9,12094.053999999998
1662.0,11934.45
1662.1,11778.788
1662.2,11626.921
1662.3,11478.714
1662.4,11334.034
1662.5,11192.757
1662.6,11054.765
1662.7,10919.943000000001
1662.8,10788.184
1662.9,10659.383999999998
1663.0,10533.445
1663.1,10410.271
1663.2,10289.771999999999
1663.3,10171.863000000001
1663.4,10056.459
1663.5,9943.483
1663.6,9832.858
1663.7,9724.511
1663.8,9618.372
1663.9,9514.374
1664.0,9412.454
1664.1,9312.549
1664.2,9214.599
1664.3,9118.548
1664.4,9024.341
1664.5,8931.925
1664.6,8841.25
1664.7,8752.266
1664.8,8664.927
1664.9,8579.186
1665.0,8495.002
1665.1,8412.33
1665.2,8331.131
1665.3,8251.366
1665.4,8172.996999999999
1665.5,8095.986999999999
1665.6,8020.3009999999995
1665.7,7945.905
1665.8,7872.767
1665.9,7800.854
1666.0,7730.1359999999995
1666.1,7660.584
1666.2,7592.168000000001
1666.3,7524.86
1666.4,7458.635
1666.5,7393.465
1666.6,7329.326999999999
1666.7,7266.194
1666.8,7204.045
1666.9,7142.855
1667.0,7082.603
1667.1,7023.267
1667.2,6964.826999999999
1667.3,6907.2609999999995
1667.4,6850.552
1667.5,6794.678000000001
1667.6,6739.6230000000005
1667.7,6685.368
1667.8,6631.895
1667.9,6579.188
1668.0,6527.231
1668.1,6476.005999999999
1668.2,6425.5
1668.3,6375.696
1668.4,6326.581
1668.5,6278.139
1668.6,6230.358
1668.7,6183.223000000001
1668.8,6136.721
1668.9,6090.84
1669.0,6045.566999999999
1669.1,6000.89
1669.2,5956.798000000001
1669.3,5913.278
1669.4,5870.32
1669.5,5827.9130000000005
1669.6,5786.047
1669.7,5744.71
1669.8,5703.892
1669.9,5663.585
1670.0,5623.778
1670.1,5584.4619999999995
1670.2,5545.629
1670.3,5507.268
1670.4,5469.371999999999
1670.5,5431.931
1670.6,5394.939
1670.7,5358.3859999999995
1670.8,5322.265
1670.9,5286.568
1671.0,5251.2880000000005
1671.1,5216.417
1671.2,5181.948
1671.3,5147.874
1671.4,5114.189
1671.5,5080.8859999999995
1671.6,5047.958
1671.7,5015.398
1671.8,4983.201
1671.9,4951.361
1672.0,4919.871
1672.1,4888.726
1672.2,4857.920999999999
1672.3,4827.448
1672.4,4797.304
1672.5,4767.483
1672.6,4737.979
1672.7,4708.787
1672.8,4679.903
1672.9,4651.322
1673.0,4623.038
1673.1,4595.048
1673.2,4567.345
1673.3,4539.927
1673.4,4512.789000000001
1673.5,4485.9259999999995
1673.6,4459.334
1673.7,4433.009
1673.8,4406.947
1673.9,4381.144
1674.0,4355.596
1674.1,4330.299
1674.2,4305.25
1674.3,4280.444
1674.4,4255.879
1674.5,4231.5509999999995
1674.6,4207.456
1674.7,4183.590999999999
1674.8,4159.952
1674.9,4136.537
1675.0,4113.342000000001
1675.1,4090.364
1675.2,4067.6
1675.3,4045.047
1675.4,4022.702
1675.5,4000.562
1675.6,3978.6240000000003
1675.7,3956.885
1675.8,3935.343
1675.9,3913.9959999999996
1676.0,3892.8390000000004
1676.1,3871.8709999999996
1676.2,3851.09
1676.3,3830.492
1676.4,3810.075
1676.5,3789.837
1676.6,3769.775
1676.7,3749.888
1676.8,3730.172
1676.9,3710.6259999999997
1677.0,3691.2470000000003
1677.1,3672.034
1677.2,3652.9829999999997
1677.3,3634.093
1677.4,3615.362
1677.5,3596.788
1677.6,3578.369
1677.7,3560.1020000000003
1677.8,3541.987
1677.9,3524.02
1678.0,3506.2009999999996
1678.1,3488.527
1678.2,3470.9959999999996
1678.3,3453.607
1678.4,3436.3590000000004
1678.5,3419.248
1678.6,3402.2740000000003
1678.7,3385.435
1678.8,3368.73
1678.9,3352.156
1679.0,3335.712
1679.1,3319.397
1679.2,3303.2090000000003
1679.3,3287.1459999999997
1679.4,3271.2070000000003
1679.5,3255.3909999999996
1679.6,3239.696
1679.7,3224.1209999999996
1679.8,3208.664
1679.9,3193.324
1680.0,3178.1
1680.1,3162.99
1680.2,3147.993
1680.3,3133.1079999999997
1680.4,3118.333
1680.5,3103.667
1680.6,3089.1090000000004
1680.7,3074.658
1680.8,3060.312
1680.9,3046.071
1681.0,3031.9320000000002
1681.1,3017.8959999999997
1681.2,3003.961
1681.3,2990.1259999999997
1681.4,2976.389
1681.5,2962.75
1681.6,2949.2070000000003
1681.7,2935.76
1681.8,2922.407
1681.9,2909.1479999999997
1682.0,2895.982
1682.1,2882.907
1682.2,2869.922
1682.3,2857.027
1682.4,2844.22
1682.5,2831.5009999999997
1682.6,2818.869
1682.7,2806.323
1682.8,2793.861
1682.9,2781.4840000000004
1683.0,2769.19
1683.1,2756.978
1683.2,2744.848
1683.3,2732.798
1683.4,2720.828
1683.5,2708.937
1683.6,2697.1240000000003
1683.7,2685.389
1683.8,2673.73
1683.9,2662.147
1684.0,2650.64
1684.1,2639.2059999999997
1684.2,2627.847
1684.3,2616.56
1684.4,2605.345
1684.5,2594.202
1684.6,2583.129
1684.7,2572.127
1684.8,2561.194
1684.9,2550.3289999999997
1685.0,2539.533
1685.1,2528.804
1685.2,2518.1420000000003
1685.3,2507.545
1685.4,2497.015
1685.5,2486.549
1685.6,2476.147
1685.7,2465.8089999999997
1685.8,2455.534
1685.9,2445.321
1686.0,2435.17
1686.1,2425.081
1686.2,2415.052
1686.3,2405.083
1686.4,2395.174
1686.5,2385.324
1686.6,2375.532
1686.7,2365.798
1686.8,2356.121
1686.9,2346.502
1687.0,2336.938
1687.1,2327.431
1687.2,2317.979
1687.3,2308.581
1687.4,2299.238
1687.5,2289.949
1687.6,2280.714
1687.7,2271.531
1687.8,2262.4
1687.9,2253.322
1688.0,2244.295
1688.1,2235.319
1688.2,2226.394
1688.3,2217.518
1688.4,2208.6929999999998
1688.5,2199.917
1688.6,2191.189
1688.7,2182.51
1688.8,2173.879
1688.9,2165.2960000000003
1689.0,2156.76
1689.1,2148.271
1689.2,2139.828
1689.3,2131.431
1689.4,2123.0789999999997
1689.5,2114.7729999999997
1689.6,2106.512
1689.7,2098.295
1689.8,2090.1220000000003
1689.9,2081.993
1690.0,2073.907
1690.1,2065.865
1690.2,2057.864
1690.3,2049.907
1690.4,2041.991
1690.5,2034.116
1690.6,2026.283
1690.7,2018.491
1690.8,2010.739
1690.9,2003.0279999999998
1691.0,1995.356
1691.1,1987.724
1691.2,1980.132
1691.3,1972.578
1691.4,1965.0629999999999
1691.5,1957.586
1691.6,1950.1470000000002
1691.7,1942.746
1691.8,1935.3829999999998
1691.9,1928.056
1692.0,1920.767
1692.1,1913.513
1692.2,1906.297
1692.3,1899.116
1692.4,1891.97
1692.5,1884.861
1692.6,1877.786
1692.7,1870.746
1692.8,1863.741
1692.9,1856.77
1693.0,1849.8329999999999
1693.1,1842.93
1693.2,1836.06
1693.3,1829.224
1693.4,1822.42
1693.5,1815.65
1693.6,1808.912
1693.7,1802.2060000000001
1693.8,1795.5320000000002
1693.9,1788.89
1694.0,1782.28
1694.1,1775.701
1694.2,1769.152
1694.3,1762.635
1694.4,1756.149
1694.5,1749.692
1694.6,1743.266
1694.7,1736.87
1694.8,1730.504
1694.9,1724.1670000000001
1695.0,1717.859
1695.1,1711.5810000000001
1695.2,1705.3310000000001
1695.3,1699.11
1695.4,1692.9170000000001
1695.5,1686.753
1695.6,1680.6170000000002
1695.7,1674.5079999999998
1695.8,1668.4270000000001
1695.9,1662.3729999999998
1696.0,1656.3470000000002
1696.1,1650.348
1696.2,1644.375
1696.3,1638.43
1696.4,1632.51
1696.5,1626.6170000000002
1696.6,1620.75
1696.7,1614.9089999999999
1696.8,1609.094
1696.9,1603.3039999999999
1697.0,1597.54
1697.1,1591.8
1697.2,1586.086
1697.3,1580.3970000000002
1697.4,1574.7320000000002
1697.5,1569.092
1697.6,1563.476
1697.7,1557.884
1697.8,1552.316
1697.9,1546.7720000000002
1698.0,1541.251
1698.1,1535.755
1698.2,1530.281
1698.3,1524.8310000000001
1698.4,1519.4029999999998
1698.5,1513.999
1698.6,1508.6170000000002
1698.7,1503.2579999999998
1698.8,1497.921
1698.9,1492.6070000000002
1699.0,1487.3139999999999
1699.1,1482.0439999999999
1699.2,1476.795
1699.3,1471.568
1699.4,1466.362
1699.5,1461.1779999999999
1699.6,1456.015
1699.7,1450.874
1699.8,1445.753
1699.9,1440.6529999999998
1700.0,1435.5729999999999
1700.1,1430.515
1700.2,1425.476
1700.3,1420.4579999999999
1700.4,1415.46
1700.5,1410.4820000000002
1700.6,1405.524
1700.7,1400.586
1700.8,1395.6670000000001
1700.9,1390.7679999999998
1701.0,1385.888
1701.1,1381.0279999999998
1701.2,1376.1870000000001
1701.3,1371.364
1701.4,1366.5610000000001
1701.5,1361.776
1701.6,1357.01
1701.7,1352.263
1701.8,1347.533
1701.9,1342.8229999999999
1702.0,1338.13
1702.1,1333.4560000000001
1702.2,1328.799
1702.3,1324.16
1702.4,1319.539
1702.5,1314.9360000000001
1702.6,1310.35
1702.7,1305.782
1702.8,1301.23
1702.9,1296.6960000000001
1703.0,1292.18
1703.1,1287.68
1703.2,1283.197
1703.3,1278.73
1703.4,1274.281
1703.5,1269.848
1703.6,1265.431
1703.7,1261.031
1703.8,1256.647
1703.9,1252.28
1704.0,1247.928
1704.1,1243.5919999999999
1704.2,1239.272
1704.3,1234.968
1704.4,1230.68
1704.5,1226.407
1704.6,1222.15
1704.7,1217.9080000000001
1704.8,1213.682
1704.9,1209.47
1705.0,1205.274
1705.1,1201.093
1705.2,1196.927
1705.3,1192.776
1705.4,1188.639
1705.5,1184.517
1705.6,1180.41
1705.7,1176.317
1705.8,1172.239
1705.9,1168.175
1706.0,1164.126
1706.1,1160.09
1706.2,1156.069
1706.3,1152.062
1706.4,1148.068
1706.5,1144.089
1706.6,1140.123
1706.7,1136.171
1706.8,1132.233
1706.9,1128.308
1707.0,1124.396
1707.1,1120.498
1707.2,1116.614
1707.3,1112.742
1707.4,1108.884
1707.5,1105.039
1707.6,1101.2069999999999
1707.7,1097.388
1707.8,1093.5810000000001
1707.9,1089.788
1708.0,1086.007
1708.1,1082.239
1708.2,1078.483
1708.3,1074.74
1708.4,1071.009
1708.5,1067.2910000000002
1708.6,1063.585
1708.7,1059.892
1708.8,1056.21
1708.9,1052.5410000000002
1709.0,1048.883
1709.1,1045.238
1709.2,1041.604
1709.3,1037.983
1709.4,1034.373
1709.5,1030.775
1709.6,1027.188
1709.7,1023.613
1709.8,1020.05
1709.9,1016.498
1710.0,1012.957
1710.1,1009.428
1710.2,1005.91
1710.3,1002.403
1710.4,998.9069999999999
1710.5,995.423
1710.6,991.949
1710.7,988.487
1710.8,985.035
1710.9,981.5939999999999
1711.0,978.164
1711.1,974.745
1711.2,971.337
1711.3,967.939
1711.4,964.551
1711.5,961.174
1711.6,957.808
1711.7,954.452
1711.8,951.1060000000001
1711.9,947.7710000000001
1712.0,944.446
1712.1,941.1310000000001
1712.2,937.826
1712.3,934.5319999999999
1712.4,931.247
1712.5,927.972
1712.6,924.7080000000001
1712.7,921.453
1712.8,918.2080000000001
1712.9,914.972
1713.0,911.747
1713.1,908.5310000000001
1713.2,905.324
1713.3,902.128
1713.4,898.941
1713.5,895.763
1713.6,892.595
1713.7,889.436
1713.8,886.2860000000001
1713.9,883.1460000000001
1714.0,880.015
1714.1,876.893
1714.2,873.78
1714.3,870.676
1714.4,867.582
1714.5,864.4960000000001
1714.6,861.419
1714.7,858.352
1714.8,855.293
1714.9,852.243
1715.0,849.202
1715.1,846.169
1715.2,843.145
1715.3,840.13
1715.4,837.123
1715.5,834.125
1715.6,831.1360000000001
1715.7,828.155
1715.8,825.182
1715.9,822.2180000000001
1716.0,819.262
1716.1,816.315
1716.2,813.3760000000001
1716.3,810.445
1716.4,807.5219999999999
1716.5,804.607
1716.6,801.701
1716.7,798.802
1716.8,795.9119999999999
1716.9,793.029
1717.0,790.155
1717.1,787.288
1717.2,784.429
1717.3,781.578
1717.4,778.735
1717.5,775.9
1717.6,773.072
1717.7,770.253
1717.8,767.44
1717.9,764.6360000000001
1718.0,761.8389999999999
1718.1,759.049
1718.2,756.2669999999999
1718.3,753.493
1718.4,750.7260000000001
1718.5,747.966
1718.6,745.2139999999999
1718.7,742.4689999999999
1718.8,739.7310000000001
1718.9,737.0
1719.0,734.2769999999999
1719.1,731.561
1719.2,728.852
1719.3,726.1510000000001
1719.4,723.456
1719.5,720.768
1719.6,718.0880000000001
1719.7,715.414
1719.8,712.748
1719.9,710.0880000000001
1720.0,707.435
1720.1,704.789
1720.2,702.15
1720.3,699.518
1720.4,696.8919999999999
1720.5,694.2739999999999
1720.6,691.6619999999999
1720.7,689.056
1720.8,686.4580000000001
1720.9,683.865
1721.0,681.28
1721.1,678.701
1721.2,676.128
1721.3,673.562
1721.4,671.003
1721.5,668.45
1721.6,665.903
1721.7,663.363
1721.8,660.829
1721.9,658.301
1722.0,655.78
1722.1,653.265
1722.2,650.756
1722.3,648.253
1722.4,645.757
1722.5,643.2669999999999
1722.6,640.783
1722.7,638.304
1722.8,635.832
1722.9,633.366
1723.0,630.906
1723.1,628.452
1723.2,626.004
1723.3,623.562
1723.4,621.126
1723.5,618.696
1723.6,616.271
1723.7,613.8530000000001
1723.8,611.44
1723.9,609.033
1724.0,606.632
1724.1,604.236
1724.2,601.846
1724.3,599.462
1724.4,597.0830000000001
1724.5,594.71
1724.6,592.3430000000001
1724.7,589.981
1724.8,587.625
1724.9,585.275
1725.0,582.929
1725.1,580.59
1725.2,578.255
1725.3,575.927
1725.4,573.6030000000001
1725.5,571.285
1725.6,568.9730000000001
1725.7,566.665
1725.8,564.363
1725.9,562.067
1726.0,559.775
1726.1,557.489
1726.2,555.2080000000001
1726.3,552.932
1726.4,550.6619999999999
1726.5,548.396
1726.6,546.136
1726.7,543.881
1726.8,541.631
1726.9,539.386
1727.0,537.146
1727.1,534.911
1727.2,532.681
1727.3,530.456
1727.4,528.236
1727.5,526.021
1727.6,523.811
1727.7,521.606
1727.8,519.406
1727.9,517.21
1728.0,515.019
1728.1,512.8340000000001
1728.2,510.653
1728.3,508.476
1728.4,506.305
1728.5,504.13800000000003
1728.6,501.976
1728.7,499.819
1728.8,497.666
1728.9,495.51800000000003
1729.0,493.375
1729.1,491.236
1729.2,489.102
1729.3,486.972
1729.4,484.847
1729.5,482.727
1729.6,480.611
1729.7,478.5
1729.8,476.39300000000003
1729.9,474.29
1730.0,472.19199999999995
1730.1,470.099
1730.2,468.01
1730.3,465.925
1730.4,463.844
1730.5,461.76800000000003
1730.6,459.69699999999995
1730.7,457.629
1730.8,455.566
1730.9,453.50800000000004
1731.0,451.45300000000003
1731.1,449.403
1731.2,447.35699999999997
1731.3,445.315
1731.4,443.278
1731.5,441.244
1731.6,439.215
1731.7,437.19
1731.8,435.16900000000004
1731.9,433.152
1732.0,431.14
1732.1,429.131
1732.2,427.126
1732.3,425.126
1732.4,423.129
1732.5,421.13699999999994
1732.6,419.149
1732.7,417.164
1732.8,415.184
1732.9,413.207
1733.0,411.235
1733.1,409.26599999999996
1733.2,407.301
1733.3,405.34
1733.4,403.38300000000004
1733.5,401.43
1733.6,399.481
1733.7,397.535
1733.8,395.594
1733.9,393.656
1734.0,391.722
1734.1,389.792
1734.2,387.865
1734.3,385.94300000000004
1734.4,384.023
1734.5,382.108
1734.6,380.19699999999995
1734.7,378.289
1734.8,376.384
1734.9,374.48400000000004
1735.0,372.587
1735.1,370.69300000000004
1735.2,368.80400000000003
1735.3,366.918
1735.4,365.035
1735.5,363.156
1735.6,361.281
1735.7,359.409
1735.8,357.54
1735.9,355.675
1736.0,353.814
1736.1,351.95599999999996
1736.2,350.102
1736.3,348.251
1736.4,346.403
1736.5,344.559
1736.6,342.719
1736.7,340.881
1736.8,339.048
1736.9,337.217
1737.0,335.39
1737.1,333.566
1737.2,331.746
1737.3,329.92900000000003
1737.4,328.115
1737.5,326.305
1737.6,324.498
1737.7,322.694
1737.8,320.893
1737.9,319.096
1738.0,317.302
1738.1,315.51099999999997
1738.2,313.723
1738.3,311.939
1738.4,310.157
1738.5,308.379
1738.6,306.60400000000004
1738.7,304.83299999999997
1738.8,303.064
1738.9,301.298
1739.0,299.536
1739.1,297.777
1739.2,296.02099999999996
1739.3,294.267
1739.4,292.517
1739.5,290.77
1739.6,289.027
1739.7,287.286
1739.8,285.548
1739.9,283.813
1740.0,282.08099999999996
1740.1,280.35200000000003
1740.2,278.626
1740.3,276.903
1740.4,275.184
1740.5,273.467
1740.6,271.753
1740.7,270.041
1740.8,268.33299999999997
1740.9,266.628
1741.0,264.925
1741.1,263.226
1741.2,261.529
1741.3,259.835
1741.4,258.145
1741.5,256.45599999999996
1741.6,254.771
1741.7,253.08900000000003
1741.8,251.40900000000002
1741.9,249.732
1742.0,248.058
1742.1,246.387
1742.2,244.718
1742.3,243.05200000000002
1742.4,241.389
1742.5,239.729
1742.6,238.072
1742.7,236.417
1742.8,234.765
1742.9,233.115
1743.0,231.468
1743.1,229.824
1743.2,228.183
1743.3,226.544
1743.4,224.908
1743.5,223.274
1743.6,221.644
1743.7,220.015
1743.8,218.39
1743.9,216.767
1744.0,215.146
1744.1,213.528
1744.2,211.91299999999998
1744.3,210.3
1744.4,208.69
1744.5,207.082
1744.6,205.477
1744.7,203.875
1744.8,202.275
1744.9,200.67700000000002
1745.0,199.082
1745.1,197.489
1745.2,195.899
1745.3,194.312
1745.4,192.727
1745.5,191.144
1745.6,189.56400000000002
1745.7,187.986
1745.8,186.41
1745.9,184.83700000000002
1746.0,183.267
1746.1,181.69799999999998
1746.2,180.13299999999998
1746.3,178.56900000000002
1746.4,177.00799999999998
1746.5,175.449
1746.6,173.893
1746.7,172.33900000000003
1746.8,170.787
1746.9,169.238
1747.0,167.69099999999997
1747.1,166.146
1747.2,164.604
1747.3,163.064
1747.4,161.526
1747.5,159.99
1747.6,158.457
1747.7,156.92600000000002
1747.8,155.39700000000002
1747.9,153.871
1748.0,152.347
1748.1,150.825
1748.2,149.305
1748.3,147.787
1748.4,146.27200000000002
1748.5,144.759
1748.6,143.248
1748.7,141.739
1748.8,140.232
1748.9,138.72799999999998
1749.0,137.226
1749.1,135.725
1749.2,134.227
1749.3,132.732
1749.4,131.238
1749.5,129.746
1749.6,128.257
1749.7,126.76899999999999
1749.8,125.28399999999999
1749.9,123.801
1750.0,122.32
1750.1,120.84100000000001
1750.2,119.36399999999999
1750.3,117.889
1750.4,116.416
1750.5,114.945
1750.6,113.477
1750.7,112.01
1750.8,110.545
1750.9,109.08200000000001
1751.0,107.62200000000001
1751.1,106.163
1751.2,104.70700000000001
1751.3,103.25200000000001
1751.4,101.79899999999999
1751.5,100.348
1751.6,98.9
1751.7,97.45299999999999
1751.8,96.008
1751.9,94.565
1752.0,93.124
1752.1,91.685
1752.2,90.24799999999999
1752.3,88.81299999999999
1752.4,87.38
1752.5,85.949
1752.6,84.51899999999999
1752.7,83.09200000000001
1752.8,81.666
1752.9,80.242
1753.0,78.821
1753.1,77.40100000000001
1753.2,75.982
1753.3,74.566
1753.4,73.152
1753.5,71.73899999999999
1753.6,70.328
1753.7,68.919
1753.8,67.512
1753.9,66.107
1754.0,64.704
1754.1,63.302
1754.2,61.902
1754.3,60.504
1754.4,59.108000000000004
1754.5,57.713
1754.6,56.32
1754.7,54.928999999999995
1754.8,53.54
1754.9,52.153
1755.0,50.766999999999996
1755.1,49.383
1755.2,48.001000000000005
1755.3,46.62
1755.4,45.24100000000001
1755.5,43.864
1755.6,42.489
1755.7,41.115
1755.8,39.743
1755.9,38.373000000000005
1756.0,37.005
1756.1,35.638000000000005
1756.2,34.273
1756.3,32.909
1756.4,31.546999999999997
1756.5,30.186999999999998
1756.6,28.828000000000003
1756.7,27.471
1756.8,26.116
1756.9,24.763
1757.0,23.410999999999998
1757.1,22.06
1757.2,20.711
1757.3,19.364
1757.4,18.019000000000002
1757.5,16.675
1757.6,15.332
1757.7,13.992
1757.8,12.652000000000001
1757.9,11.315
1758.0,9.979
1758.1,8.644
1758.2,7.312
1758.3,5.98
1758.4,4.65
1758.5,3.322
1758.6,1.995
1758.7,0.67
1758.8,-0.653
1758.9,-1.975
1759.0,-3.2960000000000003
1759.1,-4.615
1759.2,-5.933
1759.3,-7.249
1759.4,-8.562999999999999
1759.5,-9.876
1759.6,-11.187999999999999
1759.7,-12.498
1759.8,-13.807
1759.9,-15.114
1760.0,-16.419
1760.1,-17.724
1760.2,-19.026
1760.3,-20.328
1760.4,-21.627
1760.5,-22.926
1760.6,-24.223000000000003
1760.7,-25.518
1760.8,-26.811999999999998
1760.9,-28.105
1761.0,-29.396
1761.1,-30.686
1761.2,-31.975
1761.3,-33.262
1761.4,-34.547
1761.5,-35.832
1761.6,-37.115
1761.7,-38.396
1761.8,-39.676
1761.9,-40.955
1762.0,-42.232
1762.1,-43.508
1762.2,-44.783
1762.3,-46.056000000000004
1762.4,-47.328
1762.5,-48.599
1762.6,-49.868
1762.7,-51.136
1762.8,-52.403
1762.9,-53.668
1763.0,-54.931999999999995
1763.1,-56.193999999999996
1763.2,-57.456
1763.3,-58.716
1763.4,-59.974
1763.5,-61.232
1763.6,-62.488
1763.7,-63.743
1763.8,-64.99600000000001
1763.9,-66.249
1764.0,-67.5
1764.1,-68.749
1764.2,-69.998
1764.3,-71.245
1764.4,-72.491
1764.5,-73.736
1764.6,-74.979
1764.7,-76.221
1764.8,-77.462
1764.9,-78.702
1765.0,-79.94
1765.1,-81.178
1765.2,-82.414
1765.3,-83.649
1765.4,-84.882
1765.5,-86.115
1765.6,-87.346
1765.7,-88.57600000000001
1765.8,-89.804
1765.9,-91.03200000000001
1766.0,-92.258
1766.1,-93.484
1766.2,-94.708
1766.3,-95.931
1766.4,-97.152
1766.5,-98.37299999999999
1766.6,-99.59200000000001
1766.7,-100.81
1766.8,-102.027
1766.9,-103.243
1767.0,-104.458
1767.1,-105.67200000000001
1767.2,-106.884
1767.3,-108.096
1767.4,-109.306
1767.5,-110.515
1767.6,-111.723
1767.7,-112.93
1767.8,-114.135
1767.9,-115.34
1768.0,-116.544
1768.1,-117.74600000000001
1768.2,-118.947
1768.3,-120.147
1768.4,-121.34700000000001
1768.5,-122.545
1768.6,-123.742
1768.7,-124.93700000000001
1768.8,-126.132
1768.9,-127.32600000000001
1769.0,-128.519
1769.1,-129.71
1769.2,-130.901
1769.3,-132.09
1769.4,-133.279
1769.5,-134.466
1769.6,-135.653
1769.7,-136.838
1769.8,-138.02200000000002
1769.9,-139.205
1770.0,-140.388
1770.1,-141.569
1770.2,-142.749
1770.3,-143.928
1770.4,-145.106
1770.5,-146.283
1770.6,-147.459
1770.7,-148.634
1770.8,-149.809
1770.9,-150.982
1771.0,-152.154
1771.1,-153.325
1771.2,-154.495
1771.3,-155.664
1771.4,-156.832
1771.5,-158.0
1771.6,-159.166
1771.7,-160.33100000000002
1771.8,-161.496
1771.9,-162.659
1772.0,-163.821
1772.1,-164.983
1772.2,-166.143
1772.3,-167.303
1772.4,-168.46099999999998
1772.5,-169.61900000000003
1772.6,-170.77599999999998
1772.7,-171.93200000000002
1772.8,-173.08700000000002
1772.9,-174.24
1773.0,-175.394
1773.1,-176.546
1773.2,-177.697
1773.3,-178.847
1773.4,-179.997
1773.5,-181.145
1773.6,-182.293
1773.7,-183.43900000000002
1773.8,-184.585
1773.9,-185.73
1774.0,-186.87400000000002
1774.1,-188.017
1774.2,-189.15900000000002
1774.3,-190.301
1774.4,-191.44099999999997
1774.5,-192.581
1774.6,-193.72
1774.7,-194.858
1774.8,-195.995
1774.9,-197.13099999999997
1775.0,-198.266
1775.1,-199.40099999999998
1775.2,-200.53400000000002
1775.3,-201.667
1775.4,-202.799
1775.5,-203.93
1775.6,-205.06
1775.7,-206.19
1775.8,-207.31799999999998
1775.9,-208.446
1776.0,-209.57299999999998
1776.1,-210.699
1776.2,-211.825
1776.3,-212.949
1776.4,-214.07299999999998
1776.5,-215.196
1776.6,-216.31799999999998
1776.7,-217.43900000000002
1776.8,-218.56
1776.9,-219.679
1777.0,-220.798
1777.1,-221.917
1777.2,-223.03400000000002
1777.3,-224.15
1777.4,-225.266
1777.5,-226.38099999999997
1777.6,-227.49599999999998
1777.7,-228.609
1777.8,-229.722
1777.9,-230.834
1778.0,-231.945
1778.1,-233.055
1778.2,-234.165
1778.3,-235.274
1778.4,-236.382
1778.5,-237.49
1778.6,-238.59599999999998
1778.7,-239.702
1778.8,-240.808
1778.9,-241.912
1779.0,-243.016
1779.1,-244.11900000000003
1779.2,-245.22099999999998
1779.3,-246.32299999999998
1779.4,-247.424
1779.5,-248.524
1779.6,-249.623
1779.7,-250.722
1779.8,-251.82
1779.9,-252.918
1780.0,-254.014
1780.1,-255.11
1780.2,-256.205
1780.3,-257.3
1780.4,-258.394
1780.5,-259.487
1780.6,-260.58
1780.7,-261.672
1780.8,-262.763
1780.9,-263.853
1781.0,-264.943
1781.1,-266.032
1781.2,-267.121
1781.3,-268.20799999999997
1781.4,-269.296
1781.5,-270.382
1781.6,-271.468
1781.7,-272.553
1781.8,-273.638
1781.9,-274.722
1782.0,-275.805
1782.1,-276.888
1782.2,-277.969
1782.3,-279.051
1782.4,-280.132
1782.5,-281.212
1782.6,-282.291
1782.7,-283.37
1782.8,-284.448
1782.9,-285.526
1783.0,-286.603
1783.1,-287.67900000000003
1783.2,-288.755
1783.3,-289.83
1783.4,-290.905
1783.5,-291.97900000000004
1783.6,-293.052
1783.7,-294.125
1783.8,-295.197
1783.9,-296.268
1784.0,-297.339
1784.1,-298.41
1784.2,-299.48
1784.3,-300.54900000000004
1784.4,-301.618
1784.5,-302.686
1784.6,-303.753
1784.7,-304.82
1784.8,-305.887
1784.9,-306.952
1785.0,-308.018
1785.1,-309.082
1785.2,-310.14599999999996
1785.3,-311.21
1785.4,-312.27299999999997
1785.5,-313.336
1785.6,-314.39799999999997
1785.7,-315.459
1785.8,-316.52
1785.9,-317.58
1786.0,-318.64
1786.1,-319.699
1786.2,-320.758
1786.3,-321.816
1786.4,-322.874
1786.5,-323.931
1786.6,-324.987
1786.7,-326.04400000000004
1786.8,-327.099
1786.9,-328.154
1787.0,-329.209
1787.1,-330.26300000000003
1787.2,-331.316
1787.3,-332.369
1787.4,-333.42199999999997
1787.5,-334.474
1787.6,-335.526
1787.7,-336.577
1787.8,-337.62699999999995
1787.9,-338.67699999999996
1788.0,-339.727
1788.1,-340.776
1788.2,-341.825
1788.3,-342.87300000000005
1788.4,-343.921
1788.5,-344.968
1788.6,-346.014
1788.7,-347.061
1788.8,-348.10699999999997
1788.9,-349.152
1789.0,-350.19699999999995
1789.1,-351.241
1789.2,-352.285
1789.3,-353.329
1789.4,-354.37199999999996
1789.5,-355.414
1789.6,-356.457
1789.7,-357.49800000000005
1789.8,-358.54
1789.9,-359.58
1790.0,-360.621
1790.1,-361.661
1790.2,-362.7
1790.3,-363.73900000000003
1790.4,-364.778
1790.5,-365.816
1790.6,-366.85400000000004
1790.7,-367.892
1790.8,-368.92900000000003
1790.9,-369.965
1791.0,-371.00199999999995
1791.1,-372.037
1791.2,-373.07300000000004
1791.3,-374.108
1791.4,-375.142
1791.5,-376.176
1791.6,-377.21
1791.7,-378.24300000000005
1791.8,-379.276
1791.9,-380.309
1792.0,-381.341
1792.1,-382.37300000000005
1792.2,-383.404
1792.3,-384.435
1792.4,-385.466
1792.5,-386.496
1792.6,-387.526
1792.7,-388.556
1792.8,-389.585
1792.9,-390.61400000000003
1793.0,-391.642
1793.1,-392.67
1793.2,-393.69800000000004
1793.3,-394.725
1793.4,-395.75199999999995
1793.5,-396.779
1793.6,-397.805
1793.7,-398.83099999999996
1793.8,-399.85699999999997
1793.9,-400.88199999999995
1794.0,-401.907
1794.1,-402.931
1794.2,-403.95599999999996
1794.3,-404.97900000000004
1794.4,-406.00300000000004
1794.5,-407.026
1794.6,-408.04900000000004
1794.7,-409.07199999999995
1794.8,-410.094
1794.9,-411.116
1795.0,-412.13699999999994
1795.1,-413.159
1795.2,-414.18
1795.3,-415.2
1795.4,-416.221
1795.5,-417.241
1795.6,-418.26
1795.7,-419.28
1795.8,-420.29900000000004
1795.9,-421.31800000000004
1796.0,-422.336
1796.1,-423.35400000000004
1796.2,-424.37199999999996
1796.3,-425.39
1796.4,-426.407
1796.5,-427.42400000000004
1796.6,-428.441
1796.7,-429.458
1796.8,-430.474
1796.9,-431.49
1797.0,-432.505
1797.1,-433.52099999999996
1797.2,-434.536
1797.3,-435.551
1797.4,-436.565
1797.5,-437.58
1797.6,-438.594
1797.7,-439.60699999999997
1797.8,-440.621
1797.9,-441.634
1798.0,-442.647
1798.1,-443.66
1798.2,-444.673
1798.3,-445.685
1798.4,-446.69699999999995
1798.5,-447.709
1798.6,-448.72
1798.7,-449.731
1798.8,-450.74300000000005
1798.9,-451.75300000000004
1799.0,-452.764
1799.1,-453.774
1799.2,-454.784
1799.3,-455.79400000000004
1799.4,-456.80400000000003
1799.5,-457.814
1799.6,-458.82300000000004
1799.7,-459.832
1799.8,-460.841
1799.9,-461.849
1800.0,-462.858
